Timestamp,AF3 Value,AF3 Quality,AF4 Value,AF4 Quality,F3 Value,F3 Quality,F4 Value,F4 Quality,F7 Value,F7 Quality,F8 Value,F8 Quality
2017-03-09 18:13:27.931427,-2736,0,-2053,0,-1663,0,2749,0,-5439,0,-5919,0
2017-03-09 18:13:27.931600,-2736,0,-2053,0,-1663,0,2749,0,-5439,0,-5919,0
2017-03-09 18:13:27.931662,-2736,0,-2053,0,-1663,0,2749,0,-5439,0,-5919,0
2017-03-09 18:13:27.931700,-2736,0,-2053,0,-1663,0,2749,0,-5439,0,-5919,0
2017-03-09 18:13:27.931736,-2736,0,-2053,0,-1663,0,2749,0,-5439,0,-5919,0
2017-03-09 18:13:27.931772,-2736,0,-2053,0,-1663,0,2749,0,-5439,0,-5919,0
2017-03-09 18:13:27.935214,-2736,0,-2053,0,-1663,0,2749,0,-5439,0,-5919,0
2017-03-09 18:13:27.940163,-2736,0,-2053,0,-1663,0,2749,0,-5439,0,-5919,0
2017-03-09 18:13:27.962677,-2736,0,-2053,0,-1663,0,2749,0,-5439,0,-5919,0
2017-03-09 18:13:27.962748,-2736,0,-2053,0,-1663,0,2749,0,-5439,0,-5919,0
2017-03-09 18:13:27.962793,-2736,0,-2053,0,-1663,0,2749,0,-5439,0,-5919,0
2017-03-09 18:13:27.974030,-2736,0,-2053,0,-1663,0,2749,0,-5439,0,-5919,0
2017-03-09 18:13:27.981888,-2736,0,-2053,0,-1663,0,2749,0,-5439,0,-5919,0
2017-03-09 18:13:27.998487,110,0,-7873,0,-6827,0,-2967,0,5777,0,4135,14927
2017-03-09 18:13:28.002676,110,0,-7873,0,-6827,0,-2967,0,5777,0,4135,14927
2017-03-09 18:13:28.031366,-4569,0,6596,0,-2807,0,-1984,0,-7887,0,2950,14927
2017-03-09 18:13:28.031554,-4569,0,6596,0,-2807,0,-1984,0,-7887,0,2950,14927
2017-03-09 18:13:28.031707,-4569,0,6596,0,-2807,0,-1984,0,-7887,0,2950,14927
2017-03-09 18:13:28.058085,-4569,0,6596,0,-2807,0,-1984,0,-7887,0,2950,14927
2017-03-09 18:13:28.058284,-4569,0,6596,0,-2807,0,-1984,0,-7887,0,2950,14927
2017-03-09 18:13:28.091677,-4569,0,6596,0,-2807,0,-1984,0,-7887,0,2950,14927
2017-03-09 18:13:28.105573,-4569,0,6596,0,-2807,0,-1984,0,-7887,0,2950,14927
2017-03-09 18:13:28.109739,-4569,0,6596,0,-2807,0,-1984,0,-7887,0,2950,14927
2017-03-09 18:13:28.117546,-4569,0,6596,0,-2807,0,-1984,0,-7887,0,2950,14927
2017-03-09 18:13:28.127126,-4569,0,6596,0,-2807,0,-1984,0,-7887,0,2950,14927
2017-03-09 18:13:28.131268,-4569,0,6596,0,-2807,0,-1984,0,-7887,0,2950,14927
2017-03-09 18:13:28.144984,-4402,0,-4427,13054,-3993,0,-5859,0,4686,0,84,14927
2017-03-09 18:13:28.154473,-4402,0,-4427,13054,-3993,0,-5859,0,4686,0,84,14927
2017-03-09 18:13:28.176352,-4402,0,-4427,13054,-3993,0,-5859,0,4686,0,84,14927
2017-03-09 18:13:28.205766,-4402,0,-4427,13054,-3993,0,-5859,0,4686,0,84,14927
2017-03-09 18:13:28.222675,-4402,0,-4427,13054,-3993,0,-5859,0,4686,0,84,14927
2017-03-09 18:13:28.223397,-4047,0,-2480,3372,4315,0,-2528,0,3172,0,-5504,14927
2017-03-09 18:13:28.237861,-4047,0,-2480,3372,4315,0,-2528,0,3172,0,-5504,14927
2017-03-09 18:13:28.249126,-4047,0,-2480,3372,4315,0,-2528,0,3172,0,-5504,14927
2017-03-09 18:13:28.257545,-4047,0,-2480,3372,4315,0,-2528,0,3172,0,-5504,14927
2017-03-09 18:13:28.270025,-4047,0,-2480,3372,4315,0,-2528,0,3172,0,-5504,14927
2017-03-09 18:13:28.275435,-4047,0,-2480,3372,4315,0,-2528,0,3172,0,-5504,14927
2017-03-09 18:13:28.291513,-7656,0,-3290,3372,3813,0,6227,0,3311,0,5182,14927
2017-03-09 18:13:28.298070,7960,0,8174,3372,-1630,0,943,0,6227,0,6874,14927
2017-03-09 18:13:28.316364,7960,0,8174,3372,-1630,0,943,0,6227,0,6874,14927
2017-03-09 18:13:28.333687,7960,0,8174,3372,-1630,0,943,0,6227,0,6874,14927
2017-03-09 18:13:28.336514,-2545,0,-2456,3372,-4080,0,-6081,0,-7863,0,6902,14927
2017-03-09 18:13:28.370813,-2545,0,-2456,3372,-4080,0,-6081,0,-7863,0,6902,14927
2017-03-09 18:13:28.392701,-2545,0,-2456,3372,-4080,0,-6081,0,-7863,0,6902,14927
2017-03-09 18:13:28.393471,7921,0,6590,3372,-114,0,-2050,0,6409,0,7373,14927
2017-03-09 18:13:28.406335,7921,0,6590,3372,-114,0,-2050,0,6409,0,7373,14927
2017-03-09 18:13:28.410830,7921,0,6590,3372,-114,0,-2050,0,6409,0,7373,14927
2017-03-09 18:13:28.422190,-7328,0,542,3372,3114,0,4124,15209,5779,0,5037,9948
2017-03-09 18:13:28.431726,-7328,0,542,3372,3114,0,4124,15209,5779,0,5037,9948
2017-03-09 18:13:28.453579,-7328,0,542,3372,3114,0,4124,15209,5779,0,5037,9948
2017-03-09 18:13:28.467605,-7328,0,542,3372,3114,0,4124,15209,5779,0,5037,9948
2017-03-09 18:13:28.484930,-7328,0,542,3372,3114,0,4124,15209,5779,0,5037,9948
2017-03-09 18:13:28.485856,-7328,0,542,3372,3114,0,4124,15209,5779,0,5037,9948
2017-03-09 18:13:28.494082,-7328,0,542,3372,3114,0,4124,15209,5779,0,5037,9948
2017-03-09 18:13:28.501365,-7328,0,542,3372,3114,0,4124,15209,5779,0,5037,9948
2017-03-09 18:13:28.530367,-7328,0,542,3372,3114,0,4124,15209,5779,0,5037,9948
2017-03-09 18:13:28.535531,-7328,0,542,3372,3114,0,4124,15209,5779,0,5037,9948
2017-03-09 18:13:28.545652,-7328,0,542,3372,3114,0,4124,15209,5779,0,5037,9948
2017-03-09 18:13:28.549796,2358,0,5358,3372,3957,0,-4120,15209,7899,0,286,9948
2017-03-09 18:13:28.562863,2358,0,5358,3372,3957,0,-4120,15209,7899,0,286,9948
2017-03-09 18:13:28.594724,-7902,0,-6699,3372,-3456,0,-7570,15209,1912,0,-5457,9948
2017-03-09 18:13:28.616437,-7902,0,-6699,3372,-3456,0,-7570,15209,1912,0,-5457,9948
2017-03-09 18:13:28.625686,-7902,0,-6699,3372,-3456,0,-7570,15209,1912,0,-5457,9948
2017-03-09 18:13:28.635084,-6002,0,3808,3372,-6770,0,-8176,15209,6454,0,-3503,9948
2017-03-09 18:13:28.640039,-6002,0,3808,3372,-6770,0,-8176,15209,6454,0,-3503,9948
2017-03-09 18:13:28.657602,-6002,0,3808,3372,-6770,0,-8176,15209,6454,0,-3503,9948
2017-03-09 18:13:28.669891,-6002,0,3808,3372,-6770,0,-8176,15209,6454,0,-3503,9948
2017-03-09 18:13:28.681997,1403,0,964,3372,7397,0,6558,15209,7683,0,2540,9948
2017-03-09 18:13:28.685959,1403,0,964,3372,7397,0,6558,15209,7683,0,2540,9948
2017-03-09 18:13:28.700948,1403,0,964,3372,7397,0,6558,15209,7683,0,2540,9948
2017-03-09 18:13:28.709150,1403,0,964,3372,7397,0,6558,15209,7683,0,2540,9948
2017-03-09 18:13:28.726772,1403,0,964,3372,7397,0,6558,15209,7683,0,2540,9948
2017-03-09 18:13:28.733302,1587,0,-3868,3372,5876,0,3799,15209,5619,0,-5645,9948
2017-03-09 18:13:28.749865,-5710,0,6205,3372,-3077,0,-6751,15209,-1429,9969,717,9948
2017-03-09 18:13:28.770589,-5710,0,6205,3372,-3077,0,-6751,15209,-1429,9969,717,9948
2017-03-09 18:13:28.771062,-5710,0,6205,3372,-3077,0,-6751,15209,-1429,9969,717,9948
2017-03-09 18:13:28.781043,7178,0,-5732,3372,5227,0,-3191,15209,-4868,9969,-248,9948
2017-03-09 18:13:28.786093,7178,0,-5732,3372,5227,0,-3191,15209,-4868,9969,-248,9948
2017-03-09 18:13:28.791757,7178,0,-5732,3372,5227,0,-3191,15209,-4868,9969,-248,9948
2017-03-09 18:13:28.801429,7178,0,-5732,3372,5227,0,-3191,15209,-4868,9969,-248,9948
2017-03-09 18:13:28.806612,-3360,0,-1811,3372,-2462,0,6140,15209,2490,9969,1755,9948
2017-03-09 18:13:28.825767,-3360,0,-1811,3372,-2462,0,6140,15209,2490,9969,1755,9948
2017-03-09 18:13:28.836651,2221,0,3823,3372,-554,0,2841,15209,-4384,9969,-3996,9948
2017-03-09 18:13:28.850492,2221,0,3823,3372,-554,0,2841,15209,-4384,9969,-3996,9948
2017-03-09 18:13:28.861990,2221,0,3823,3372,-554,0,2841,15209,-4384,9969,-3996,9948
2017-03-09 18:13:28.879096,2221,0,3823,3372,-554,0,2841,15209,-4384,9969,-3996,9948
2017-03-09 18:13:28.890005,5255,0,3645,3372,6812,0,57,15209,2047,9969,-1840,9948
2017-03-09 18:13:28.911299,4031,0,5106,3372,1339,0,6907,15209,5096,9969,-2608,9948
2017-03-09 18:13:28.925088,4031,0,5106,3372,1339,0,6907,15209,5096,9969,-2608,9948
2017-03-09 18:13:28.949830,4031,0,5106,3372,1339,0,6907,15209,5096,9969,-2608,9948
2017-03-09 18:13:28.966361,-203,0,946,3372,6568,0,-6068,15209,769,9969,1758,9948
2017-03-09 18:13:28.967032,1754,0,621,3372,5018,0,-6776,15209,4261,9969,-1846,9948
2017-03-09 18:13:28.981533,1754,0,621,3372,5018,0,-6776,15209,4261,9969,-1846,9948
2017-03-09 18:13:28.988689,4325,0,281,3372,4782,0,-1357,15209,6474,9969,6382,9948
2017-03-09 18:13:28.993523,4325,0,281,3372,4782,0,-1357,15209,6474,9969,6382,9948
2017-03-09 18:13:29.001870,4325,0,281,3372,4782,0,-1357,15209,6474,9969,6382,9948
2017-03-09 18:13:29.002042,4468,0,-4706,3372,175,0,7663,15209,-2403,9969,5765,9948
2017-03-09 18:13:29.009395,4468,0,-4706,3372,175,0,7663,15209,-2403,9969,5765,9948
2017-03-09 18:13:29.019992,4468,0,-4706,3372,175,0,7663,15209,-2403,9969,5765,9948
2017-03-09 18:13:29.024713,4468,0,-4706,3372,175,0,7663,15209,-2403,9969,5765,9948
2017-03-09 18:13:29.037854,-6439,0,-1743,3372,-1009,0,7744,15209,374,9969,3694,9948
2017-03-09 18:13:29.045808,-6439,0,-1743,3372,-1009,0,7744,15209,374,9969,3694,9948
2017-03-09 18:13:29.051306,-6439,0,-1743,3372,-1009,0,7744,15209,374,9969,3694,9948
2017-03-09 18:13:29.061753,-6439,0,-1743,3372,-1009,0,7744,15209,374,9969,3694,9948
2017-03-09 18:13:29.075440,-6439,0,-1743,3372,-1009,0,-6147,15209,374,9969,3694,9948
2017-03-09 18:13:29.086592,-6439,0,-1743,3372,176,0,-6147,15209,374,9969,3694,9948
2017-03-09 18:13:29.098223,7320,0,6039,3372,-7915,0,-5212,15209,3485,9969,-7920,9948
2017-03-09 18:13:29.125798,7320,0,6039,3372,-7915,0,-5212,15209,3485,9969,-7920,9948
2017-03-09 18:13:29.142008,7320,0,6039,3372,-7915,0,-5212,15209,3485,9969,-7920,9948
2017-03-09 18:13:29.148236,-1733,0,-199,3372,4494,0,924,15209,-4320,9969,-4382,9948
2017-03-09 18:13:29.161117,-1733,0,-199,3372,4494,0,924,15209,-4320,9969,-4382,9948
2017-03-09 18:13:29.161778,-1733,0,-199,3372,4494,0,924,15209,-4320,9969,-4382,9948
2017-03-09 18:13:29.172230,-2653,0,6887,3372,-4402,0,-2480,15209,-2527,9969,-7867,9948
2017-03-09 18:13:29.178080,-2653,0,6887,3372,-4402,0,-2480,15209,-2527,9969,-7867,9948
2017-03-09 18:13:29.185870,-2653,0,6887,3372,-4402,0,-2480,15209,-2527,9969,-7867,9948
2017-03-09 18:13:29.191659,-2653,0,6887,3372,-4402,0,-2480,15209,-2527,9969,-7867,9948
2017-03-09 18:13:29.202595,7791,0,-3577,3372,598,0,-3873,15209,2330,9969,6819,9948
2017-03-09 18:13:29.217930,7791,0,-3577,3372,598,0,-3873,15209,2330,9969,6819,9948
2017-03-09 18:13:29.218097,-3131,0,3185,3372,6131,0,-6128,15209,-795,9969,8073,9948
2017-03-09 18:13:29.231095,-3131,0,3185,3372,6131,0,-6128,15209,-795,9969,8073,9948
2017-03-09 18:13:29.243795,-3131,0,3185,3372,6131,0,-6128,15209,-795,9969,8073,9948
2017-03-09 18:13:29.243986,-3131,0,3185,3372,6131,0,-6128,15209,-795,9969,8073,9948
2017-03-09 18:13:29.253769,-3131,0,3185,3372,6131,0,-6128,15209,-795,9969,8073,9948
2017-03-09 18:13:29.262072,-3131,0,3185,3372,6131,0,-6128,15209,-795,9969,8073,9948
2017-03-09 18:13:29.271899,-3131,0,3185,3372,6131,0,-6128,15209,-795,9969,8073,9948
2017-03-09 18:13:29.286216,-3131,0,3185,3372,6131,0,-6128,15209,-795,9969,8073,9948
2017-03-09 18:13:29.305068,-3131,0,3185,3372,6131,0,-6128,15209,-795,9969,8073,9948
2017-03-09 18:13:29.305273,-3131,0,3185,3372,6131,0,-6128,15209,-795,9969,8073,9948
2017-03-09 18:13:29.322004,7267,0,-5484,3372,-3829,0,-7556,15209,4086,9969,199,9948
2017-03-09 18:13:29.337077,-5298,0,2385,3372,-7128,0,-2489,15209,989,9969,-3568,9948
2017-03-09 18:13:29.341343,-5298,0,2385,3372,-7128,0,-2489,15209,989,9969,-3568,9948
2017-03-09 18:13:29.342278,5473,0,5897,3372,-7128,0,-2489,15209,989,9969,-3568,9948
2017-03-09 18:13:29.355764,3419,0,2200,3372,4018,0,7096,6560,-7950,9969,2270,9948
2017-03-09 18:13:29.361974,3419,0,2200,3372,4018,0,7096,6560,-7950,9969,2270,9948
2017-03-09 18:13:29.369851,3419,0,2200,3372,4018,0,7096,6560,-7950,9969,2270,9948
2017-03-09 18:13:29.385977,3419,0,2200,3372,4018,0,7096,6560,-7950,9969,2270,9948
2017-03-09 18:13:29.402032,3419,0,2200,3372,4018,0,7096,6560,-7950,9969,2270,9948
2017-03-09 18:13:29.415659,3419,0,2200,3372,4018,0,7096,6560,-7950,9969,2270,9948
2017-03-09 18:13:29.425739,4490,0,-2499,3372,4651,0,-6657,6560,-6984,9969,5831,9948
2017-03-09 18:13:29.436868,3115,8979,5795,3372,-4497,0,2572,6560,-1536,9969,-5271,9948
2017-03-09 18:13:29.442504,3115,8979,5795,3372,-4497,0,2572,6560,-1536,9969,-5271,9948
2017-03-09 18:13:29.454315,3115,8979,5795,3372,-4497,0,2572,6560,-1536,9969,-5271,9948
2017-03-09 18:13:29.468385,3115,8979,5795,3372,-4497,0,2572,6560,-1536,9969,-5271,9948
2017-03-09 18:13:29.478193,3115,8979,5795,3372,-4497,0,2572,6560,-1536,9969,-5271,9948
2017-03-09 18:13:29.533860,3115,8979,5795,3372,-4497,0,2572,6560,-1536,9969,-5271,9948
2017-03-09 18:13:29.543231,-1990,8979,1728,3372,-6691,0,-2720,6560,-8175,9969,-5421,9948
2017-03-09 18:13:29.549733,-1990,8979,1728,3372,-6691,0,-2720,6560,-8175,9969,-5421,9948
2017-03-09 18:13:29.556044,-1990,8979,1728,3372,-6691,0,-2720,6560,-8175,9969,-5421,9948
2017-03-09 18:13:29.566528,-1990,8979,1728,3372,-6691,0,-2720,6560,-8175,9969,-5421,9948
2017-03-09 18:13:29.571323,-4437,8979,5511,3372,6252,0,4348,6560,-5033,9969,-8129,9948
2017-03-09 18:13:29.579557,-4437,8979,5511,3372,6252,0,4348,6560,-5033,9969,-8129,9948
2017-03-09 18:13:29.579747,-4437,8979,5511,3372,6252,0,4348,6560,-5033,9969,-8129,9948
2017-03-09 18:13:29.585580,-4437,8979,5511,3372,6252,0,4348,6560,-5033,9969,-8129,9948
2017-03-09 18:13:29.595150,-5279,8979,-3206,3372,2551,0,-1651,6560,6302,9969,676,9948
2017-03-09 18:13:29.599549,-5279,8979,-3206,3372,2551,0,-1651,6560,6302,9969,676,9948
2017-03-09 18:13:29.611375,-5279,8979,-3206,3372,2551,0,-1651,6560,6302,9969,676,9948
2017-03-09 18:13:29.617915,-5279,8979,-3206,3372,2551,0,-1651,6560,6302,9969,676,9948
2017-03-09 18:13:29.622495,-7749,8979,-4225,3372,7519,0,7456,6560,-692,9969,4459,9948
2017-03-09 18:13:29.657983,-7749,8979,-4225,3372,7519,0,7456,6560,-692,9969,4459,9948
2017-03-09 18:13:29.667254,-7749,8979,-4225,3372,7519,0,7456,6560,-692,9969,4459,9948
2017-03-09 18:13:29.677314,636,8979,4743,3372,6184,0,-983,6560,6043,9969,-4846,9948
2017-03-09 18:13:29.684688,636,8979,4743,3372,6184,0,-983,6560,6043,9969,-4846,9948
2017-03-09 18:13:29.691180,636,8979,4743,3372,6184,0,-983,6560,6043,9969,-4846,9948
2017-03-09 18:13:29.702218,636,8979,4743,3372,6184,0,-983,6560,6043,9969,-4846,9948
2017-03-09 18:13:29.715203,636,8979,4743,3372,6184,0,-983,6560,6043,9969,-4846,9948
2017-03-09 18:13:29.730320,-546,8979,-6688,3372,-5679,0,-7492,6560,-6977,9969,-1008,9948
2017-03-09 18:13:29.743928,-546,8979,-6688,3372,-5679,0,-7492,6560,-6977,9969,-1008,9948
2017-03-09 18:13:29.750422,-546,8979,-6688,3372,-5679,0,-7492,6560,-6977,9969,-1008,9948
2017-03-09 18:13:29.765613,-546,8979,-6688,3372,-5679,0,-7492,6560,-6977,9969,-1008,9948
2017-03-09 18:13:29.765788,-6190,8979,1053,3372,2231,0,-626,6560,-2530,9969,-378,9948
2017-03-09 18:13:29.778166,6014,8979,7413,3372,-4311,0,7978,6560,-4975,9969,-91,9948
2017-03-09 18:13:29.788910,6014,8979,7413,3372,-4311,0,7978,6560,-4975,9969,-91,9948
2017-03-09 18:13:29.793584,6014,8979,7413,3372,-4311,0,7978,6560,-4975,9969,-91,9948
2017-03-09 18:13:29.806004,6014,8979,7413,3372,-4311,0,7978,6560,-4975,9969,-91,9948
2017-03-09 18:13:29.812448,-7856,8979,7012,3372,-5579,0,-3932,6560,-5596,9969,1122,9948
2017-03-09 18:13:29.817738,-7856,8979,7012,3372,-5579,0,-3932,6560,-5596,9969,1122,9948
2017-03-09 18:13:29.840168,-7856,8979,7012,3372,-5579,0,-3932,6560,-5596,9969,1122,9948
2017-03-09 18:13:29.847756,-7601,8979,6231,3372,-5626,0,1112,13690,4967,9969,4517,9948
2017-03-09 18:13:29.864057,-7601,8979,6231,3372,-5626,0,1112,13690,4967,9969,4517,9948
2017-03-09 18:13:29.881403,820,8979,-3054,3372,5524,0,-514,13690,-7414,9969,-6739,9948
2017-03-09 18:13:29.881492,820,8979,-3054,3372,5524,0,-514,13690,-7414,9969,-6739,9948
2017-03-09 18:13:29.896959,820,8979,-3054,3372,5524,0,-514,13690,-7414,9969,-6739,9948
2017-03-09 18:13:29.897657,820,8979,-3054,3372,5524,0,-514,13690,-7414,9969,-6739,9948
2017-03-09 18:13:29.907987,820,8979,-3054,3372,5524,0,-514,13690,-7414,9969,-6739,9948
2017-03-09 18:13:29.931157,7089,8979,-6937,3372,3054,0,-5397,13690,4588,9969,-7505,9948
2017-03-09 18:13:29.941821,7089,8979,-6937,3372,3054,0,-5397,13690,4588,9969,-7505,9948
2017-03-09 18:13:29.963531,7089,8979,-6937,3372,3054,0,-5397,13690,4588,9969,-7505,9948
2017-03-09 18:13:29.977666,7089,8979,-6937,3372,3054,0,-5397,13690,4588,9969,-7505,9948
2017-03-09 18:13:29.986641,7089,8979,-6937,3372,3054,0,-5397,13690,4588,9969,-7505,9948
2017-03-09 18:13:29.999608,7089,8979,-6937,3372,3054,0,-5397,13690,4588,9969,-7505,9948
2017-03-09 18:13:30.014922,7089,8979,-6937,3372,3054,0,-5397,13690,4588,9969,-7505,9948
2017-03-09 18:13:30.015122,-6985,8979,-5656,3372,7064,0,461,13690,5135,9969,-1380,9948
2017-03-09 18:13:30.029824,-2962,8979,-3906,3372,-3041,0,-4697,13690,2164,9969,2800,9948
2017-03-09 18:13:30.039847,-2962,8979,-3906,3372,-3041,0,-4697,13690,2164,9969,2800,9948
2017-03-09 18:13:30.046362,-2962,8979,-3906,3372,-3041,0,-4697,13690,2164,9969,2800,9948
2017-03-09 18:13:30.073651,-2962,8979,-3906,3372,-3041,0,-4697,13690,2164,9969,2800,9948
2017-03-09 18:13:30.090735,-2962,8979,-3906,3372,-3041,0,-4697,13690,2164,9969,2800,9948
2017-03-09 18:13:30.096344,-2962,8979,-3906,3372,-3041,0,-4697,13690,2164,9969,2800,9948
2017-03-09 18:13:30.106754,-2962,8979,-3906,3372,-3041,0,-4697,13690,2164,9969,2800,9948
2017-03-09 18:13:30.115447,-2962,8979,-3906,3372,-3041,0,-4697,13690,2164,9969,2800,9948
2017-03-09 18:13:30.116445,-2962,8979,-3906,3372,-3041,0,-4697,13690,2164,9969,2800,9948
2017-03-09 18:13:30.143598,279,8979,-7896,3372,-4294,0,-4818,13690,2558,9969,-4594,9948
2017-03-09 18:13:30.171727,279,8979,-7896,3372,-4294,0,-4818,13690,2558,9969,-4594,9948
2017-03-09 18:13:30.198720,279,8979,-7896,3372,-4294,0,-4818,13690,2558,9969,-4594,9948
2017-03-09 18:13:30.199599,279,8979,-7896,3372,-4294,0,-4818,13690,2558,9969,-4594,9948
2017-03-09 18:13:30.217925,-399,8979,415,3372,-2775,0,8135,12627,-5776,9969,4406,9948
2017-03-09 18:13:30.228253,-399,8979,415,3372,-2775,0,8135,12627,-5776,9969,4406,9948
2017-03-09 18:13:30.239159,-399,8979,415,3372,-2775,0,8135,12627,-5776,9969,4406,9948
2017-03-09 18:13:30.246075,-399,8979,415,3372,-2775,0,8135,12627,-5776,9969,4406,9948
2017-03-09 18:13:30.275775,-2104,8979,-6647,3372,-6768,0,3915,12627,6984,9969,-7355,9948
2017-03-09 18:13:30.290479,2967,8979,439,3372,1777,0,5873,12627,-4774,9969,8191,9948
2017-03-09 18:13:30.310424,2967,8979,439,3372,1777,0,5873,12627,-4774,9969,8191,9948
2017-03-09 18:13:30.310620,2967,8979,439,3372,1777,0,5873,12627,-4774,9969,8191,9948
2017-03-09 18:13:30.326147,-6372,8979,-4151,3372,-5361,0,-3896,12627,-3892,9969,226,2398
2017-03-09 18:13:30.360667,-6372,8979,-4151,3372,-5361,0,-3896,12627,-3892,9969,226,2398
2017-03-09 18:13:30.394141,-6372,8979,-4151,3372,-5361,0,-3896,12627,-3892,9969,226,2398
2017-03-09 18:13:30.410187,1146,8979,-4633,3372,-2791,0,6353,12627,-2829,9969,-6994,2398
2017-03-09 18:13:30.422979,1794,8979,-3966,3372,-7388,0,-156,12627,-7762,9969,-2572,2398
2017-03-09 18:13:30.442252,1794,8979,-3966,3372,-7388,0,-156,12627,-7762,9969,-2572,2398
2017-03-09 18:13:30.458032,1794,8979,-3966,3372,-7388,0,-156,12627,-7762,9969,-2572,2398
2017-03-09 18:13:30.471921,3353,8979,628,3372,-3699,0,-4131,12627,-5404,9969,-4051,2398
2017-03-09 18:13:30.492246,3353,8979,628,3372,-3699,0,-4131,12627,-5404,9969,-4051,2398
2017-03-09 18:13:30.515207,3353,8979,628,3372,-3699,0,-4131,12627,-5404,9969,-4051,2398
2017-03-09 18:13:30.541768,-26,8979,-956,3372,5132,0,3926,12627,148,9969,4994,2398
2017-03-09 18:13:30.550779,-26,8979,-956,3372,5132,0,3926,12627,148,9969,4994,2398
2017-03-09 18:13:30.562555,-3884,8979,-1915,3372,7475,0,-1769,7636,-2237,9969,2481,2398
2017-03-09 18:13:30.575410,4675,8979,-6438,3372,-6289,0,-6453,7636,-4518,9969,-2568,2398
2017-03-09 18:13:30.603947,2347,8979,-1544,3372,4930,0,-3561,7636,3389,9969,-3611,2398
2017-03-09 18:13:30.625780,2347,8979,-1544,3372,4930,0,-3561,7636,3389,9969,-3611,2398
2017-03-09 18:13:30.649702,2347,8979,-1544,3372,4930,0,-3561,7636,3389,9969,-3611,2398
2017-03-09 18:13:30.673514,7290,8979,-2074,3372,4171,0,6147,7636,-4860,9969,6707,2398
2017-03-09 18:13:30.691150,7290,8979,-2074,3372,4171,0,6147,7636,-4860,9969,6707,2398
2017-03-09 18:13:30.691483,7290,8979,-2074,3372,4171,0,6147,7636,-4860,9969,6707,2398
2017-03-09 18:13:30.706577,7290,8979,-2074,3372,4171,0,6147,7636,-4860,9969,6707,2398
2017-03-09 18:13:30.715944,1793,15332,3459,3372,-6235,0,-8091,7636,4490,9969,165,2398
2017-03-09 18:13:30.731637,1793,15332,3459,3372,-6235,0,-8091,7636,4490,9969,165,2398
2017-03-09 18:13:30.732194,1793,15332,3459,3372,-6235,0,-8091,7636,4490,9969,165,2398
2017-03-09 18:13:30.775270,-6207,15332,-3924,3372,7573,6068,-7100,7636,-5252,9969,7978,2398
2017-03-09 18:13:30.781836,-6207,15332,-3924,3372,7573,6068,-7100,7636,-5252,9969,7978,2398
2017-03-09 18:13:30.789906,-3820,15332,2139,3372,605,6068,1099,2661,-895,9969,4111,2398
2017-03-09 18:13:30.803005,-3820,15332,2139,3372,605,6068,1099,2661,-895,9969,4111,2398
2017-03-09 18:13:30.818025,-3820,15332,2139,3372,605,6068,1099,2661,-895,9969,4111,2398
2017-03-09 18:13:30.849127,-3820,15332,2139,3372,605,6068,1099,2661,-895,9969,4111,2398
2017-03-09 18:13:30.876265,-3820,15332,2139,3372,605,6068,1099,2661,-895,9969,4111,2398
2017-03-09 18:13:30.876460,-3820,15332,2139,3372,605,6068,1099,2661,-895,9969,4111,2398
2017-03-09 18:13:30.896984,-3820,15332,2139,3372,605,6068,1099,2661,-895,9969,4111,2398
2017-03-09 18:13:30.905736,-3820,15332,2139,3372,605,6068,1099,2661,-895,9969,4111,2398
2017-03-09 18:13:30.906681,-3820,15332,2139,3372,605,6068,1099,2661,-895,9969,4111,2398
2017-03-09 18:13:30.925842,-3820,15332,2139,3372,605,6068,1099,2661,-895,9969,4111,2398
2017-03-09 18:13:30.944861,-3820,15332,2139,3372,605,6068,1099,2661,-895,9969,4111,2398
2017-03-09 18:13:30.957281,-3490,15332,-4745,3372,-5584,6068,-4528,2661,7396,9969,-4449,2398
2017-03-09 18:13:30.988383,-3490,15332,-4745,3372,-5584,6068,-4528,2661,7396,9969,-4449,2398
2017-03-09 18:13:31.004941,-3490,15332,-4745,3372,-5584,6068,-4528,2661,7396,9969,-4449,2398
2017-03-09 18:13:31.041682,2592,15332,-4267,3372,2186,6068,6786,2661,4420,9969,-6686,2398
2017-03-09 18:13:31.042688,2592,15332,-4267,3372,2186,6068,6786,2661,4420,9969,-6686,2398
2017-03-09 18:13:31.052962,-3938,15332,-7102,3372,3367,6068,157,2661,7598,9969,6120,2398
2017-03-09 18:13:31.065634,-3938,15332,-7102,3372,3367,6068,157,2661,7598,9969,6120,2398
2017-03-09 18:13:31.073729,-3938,15332,-7102,3372,3367,6068,157,2661,7598,9969,6120,2398
2017-03-09 18:13:31.085998,-3938,15332,-7102,3372,3367,6068,157,2661,7598,9969,6120,2398
2017-03-09 18:13:31.094043,-3938,15332,-7102,3372,3367,6068,157,2661,7598,9969,6120,2398
2017-03-09 18:13:31.115136,-581,15332,4657,3372,-2845,6068,-5140,2661,4325,9969,2121,2398
2017-03-09 18:13:31.131711,-581,15332,4657,3372,-2845,6068,-5140,2661,4325,9969,2121,2398
2017-03-09 18:13:31.155972,-581,15332,4657,3372,-2845,6068,-5140,2661,4325,9969,2121,2398
2017-03-09 18:13:31.156146,-581,15332,4657,3372,-2845,6068,-5140,2661,4325,9969,2121,2398
2017-03-09 18:13:31.166512,4638,15332,7840,3372,5922,6068,-3086,2661,1595,9969,2976,2398
2017-03-09 18:13:31.181497,4638,15332,7840,3372,5922,6068,-3086,2661,1595,9969,2976,2398
2017-03-09 18:13:31.189852,4638,15332,7840,3372,5922,6068,-3086,2661,1595,9969,2976,2398
2017-03-09 18:13:31.216208,4638,15332,7840,3372,5922,6068,-3086,2661,1595,9969,2976,2398
2017-03-09 18:13:31.216436,4638,15332,7840,3372,5922,6068,-3086,2661,1595,9969,2976,2398
2017-03-09 18:13:31.246240,4638,15332,7840,3372,5922,6068,-3086,2661,1595,9969,2976,2398
2017-03-09 18:13:31.273049,-5914,15332,-7658,3372,2740,6068,79,2661,7044,9969,-7619,2398
2017-03-09 18:13:31.273693,-5914,15332,-7658,3372,2740,6068,79,2661,7044,9969,-7619,2398
2017-03-09 18:13:31.282609,-5914,15332,-7658,3372,2740,6068,79,2661,7044,9969,-7619,2398
2017-03-09 18:13:31.292415,-5914,15332,-7658,3372,2740,6068,79,2661,7044,9969,-7619,2398
2017-03-09 18:13:31.304013,-1828,15332,-371,3372,-6925,6068,6584,2661,-8167,9969,4843,2398
2017-03-09 18:13:31.337520,-1828,15332,-371,3372,-6925,6068,6584,2661,-8167,9969,4843,2398
2017-03-09 18:13:31.353875,-1828,15332,-371,3372,-6925,6068,6584,2661,-8167,9969,4843,2398
2017-03-09 18:13:31.386139,-1828,15332,-371,3372,-6925,6068,6584,2661,-8167,9969,4843,2398
2017-03-09 18:13:31.386357,580,15332,-2610,3372,-2253,6068,1400,2661,-2576,9969,-6646,2398
2017-03-09 18:13:31.414137,580,15332,-2610,3372,-2253,6068,1400,2661,-2576,9969,-6646,2398
2017-03-09 18:13:31.422959,580,15332,-2610,3372,-2253,6068,1400,2661,-2576,9969,-6646,2398
2017-03-09 18:13:31.436482,580,15332,-2610,3372,-2253,6068,1400,2661,-2576,9969,-6646,2398
2017-03-09 18:13:31.467558,317,15332,-2266,3372,5157,6068,-7201,2661,2527,9969,7464,2398
2017-03-09 18:13:31.489767,317,15332,-2266,3372,5157,6068,-7201,2661,2527,9969,7464,2398
2017-03-09 18:13:31.498104,317,15332,-2266,3372,5157,6068,-7201,2661,2527,9969,7464,2398
2017-03-09 18:13:31.524705,317,15332,-2266,3372,5157,6068,-7201,2661,2527,9969,7464,2398
2017-03-09 18:13:31.536704,-618,15332,1478,3372,3308,6068,2868,2661,-7467,9969,-398,2398
2017-03-09 18:13:31.553173,1966,15332,-8109,3372,-2331,6068,-1972,2661,-7661,9969,-813,2398
2017-03-09 18:13:31.553393,1966,15332,-8109,3372,-2331,6068,-1972,2661,-7661,9969,-813,2398
2017-03-09 18:13:31.589116,1966,15332,-8109,3372,-2331,6068,-1972,2661,-7661,9969,-813,2398
2017-03-09 18:13:31.617316,1966,15332,-8109,3372,-2331,6068,-1972,2661,-7661,9969,-813,2398
2017-03-09 18:13:31.637952,1966,15332,-8109,3372,-2331,6068,-1972,2661,-7661,9969,-813,2398
2017-03-09 18:13:31.668097,1966,15332,-8109,3372,-2331,6068,-1972,2661,-7661,9969,-813,2398
2017-03-09 18:13:31.683354,-8182,15332,-837,3372,2640,6068,-4724,2661,3909,9969,-6602,2398
2017-03-09 18:13:31.697914,3159,15332,5146,3372,-1482,6068,-802,2661,-7993,9969,2357,2398
2017-03-09 18:13:31.710727,3159,15332,5146,3372,-1482,6068,-802,2661,-7993,9969,2357,2398
2017-03-09 18:13:31.725905,3408,15332,-7345,3372,2678,6068,-2158,2661,4759,9969,1778,2398
2017-03-09 18:13:31.738479,-7132,15332,-7581,12914,7819,6068,-4531,2661,6216,9969,-1336,2398
2017-03-09 18:13:31.749182,-6727,15332,5198,12914,-5040,6068,5202,2661,-6917,9969,-1698,2398
2017-03-09 18:13:31.752957,-6727,15332,5198,12914,-5040,6068,5202,2661,-6917,9969,-1698,2398
2017-03-09 18:13:31.780946,-6727,15332,5198,12914,-5040,6068,5202,2661,-6917,9969,-1698,2398
2017-03-09 18:13:31.790006,3006,15332,5076,12914,-6500,15701,-50,2661,3204,9969,668,2398
2017-03-09 18:13:31.809628,3006,15332,5076,12914,-6500,15701,-50,2661,3204,9969,668,2398
2017-03-09 18:13:31.809840,3006,15332,5076,12914,-6500,15701,-50,2661,3204,9969,668,2398
2017-03-09 18:13:31.818517,3006,15332,5076,12914,-6500,15701,-50,2661,3204,9969,668,2398
2017-03-09 18:13:31.834494,3006,15332,5076,12914,-6500,15701,-50,2661,3204,9969,668,2398
2017-03-09 18:13:31.840844,-1269,15332,3973,12914,1107,15701,-5080,2661,-7728,9969,1194,2398
2017-03-09 18:13:31.859794,-1269,15332,3973,12914,1107,15701,-5080,2661,-7728,9969,1194,2398
2017-03-09 18:13:31.871003,-1269,15332,3973,12914,1107,15701,-5080,2661,-7728,9969,1194,2398
2017-03-09 18:13:31.880714,7706,15332,-4704,12914,1602,15701,-7019,2661,3288,9969,-4631,2398
2017-03-09 18:13:31.889015,7706,15332,-4704,12914,1602,15701,-7019,2661,3288,9969,-4631,2398
2017-03-09 18:13:31.898598,8183,15332,-2314,12914,-3228,15701,7987,2661,7281,9969,3365,3412
2017-03-09 18:13:31.915766,8183,15332,-2314,12914,-3228,15701,7987,2661,7281,9969,3365,3412
2017-03-09 18:13:31.924484,8183,15332,-2314,12914,-3228,15701,7987,2661,7281,9969,3365,3412
2017-03-09 18:13:31.931609,4044,15332,986,12914,4839,15701,7559,2661,-6649,9969,7753,3412
2017-03-09 18:13:31.947774,4044,15332,986,12914,4839,15701,7559,2661,-6649,9969,7753,3412
2017-03-09 18:13:31.955751,4044,15332,986,12914,4839,15701,7559,2661,-6649,9969,7753,3412
2017-03-09 18:13:31.972468,4044,15332,986,12914,4839,15701,7559,2661,-6649,9969,7753,3412
2017-03-09 18:13:31.981739,4044,15332,986,12914,4839,15701,7559,2661,-6649,9969,7753,3412
2017-03-09 18:13:31.990138,4044,15332,986,12914,4839,15701,7559,2661,-6649,9969,7753,3412
2017-03-09 18:13:31.999189,4044,15332,986,12914,4839,15701,7559,2661,-6649,9969,7753,3412
2017-03-09 18:13:32.006559,4044,15332,986,12914,4839,15701,7559,2661,-6649,9969,7753,3412
2017-03-09 18:13:32.031895,1332,15332,-3779,12914,1857,15701,2207,2661,-2574,9969,3740,3412
2017-03-09 18:13:32.037088,1332,15332,-3779,12914,1857,15701,2207,2661,-2574,9969,3740,3412
2017-03-09 18:13:32.042817,1332,15332,-3779,12914,1857,15701,2207,2661,-2574,9969,3740,3412
2017-03-09 18:13:32.051575,1332,15332,-3779,12914,1857,15701,2207,2661,-2574,9969,3740,3412
2017-03-09 18:13:32.060217,-1729,15332,1894,12914,-2051,15701,3894,2661,-6317,9969,5591,3412
2017-03-09 18:13:32.067893,-1729,15332,1894,12914,-2051,15701,3894,2661,-6317,9969,5591,3412
2017-03-09 18:13:32.097218,-1729,15332,1894,12914,-2051,15701,3894,2661,-6317,9969,5591,3412
2017-03-09 18:13:32.111755,-4637,15332,-7875,12914,-5168,15701,-4877,2661,3301,9969,24,3412
2017-03-09 18:13:32.117413,-4637,15332,-7875,12914,-5168,15701,-4877,2661,3301,9969,24,3412
2017-03-09 18:13:32.125135,-4637,15332,-7875,12914,-5168,15701,-4877,2661,3301,9969,24,3412
2017-03-09 18:13:32.125851,-4637,15332,-7875,12914,-5168,15701,-4877,2661,3301,9969,24,3412
2017-03-09 18:13:32.134886,3136,15332,2724,12914,-1568,15701,3749,2661,-5478,8111,5153,3412
2017-03-09 18:13:32.145494,3136,15332,2724,12914,-1568,15701,3749,2661,-5478,8111,5153,3412
2017-03-09 18:13:32.150459,6090,15332,-1038,12914,5380,15701,6285,2661,2127,8111,-4727,3412
2017-03-09 18:13:32.161832,6090,15332,-1038,12914,5380,15701,6285,2661,2127,8111,-4727,3412
2017-03-09 18:13:32.166942,6090,15332,-1038,12914,5380,15701,6285,2661,2127,8111,-4727,3412
2017-03-09 18:13:32.172682,6090,15332,-1038,12914,5380,15701,6285,2661,2127,8111,-4727,3412
2017-03-09 18:13:32.198639,3757,15332,1638,12914,1852,15701,5880,2661,-925,8111,-2900,3412
2017-03-09 18:13:32.208945,3757,15332,1638,12914,1852,15701,5880,2661,-925,8111,-2900,3412
2017-03-09 18:13:32.216081,7954,15332,-4455,12914,1852,15701,5880,2661,-925,8111,-2900,3412
2017-03-09 18:13:32.221770,7954,15332,-4455,12914,1852,15701,5880,2661,-925,8111,-2900,3412
2017-03-09 18:13:32.235362,7126,15332,-7493,12914,-8162,15701,-3072,2661,-3976,8111,7884,3412
2017-03-09 18:13:32.242747,7126,15332,-7493,12914,-8162,15701,-3072,2661,-3976,8111,7884,3412
2017-03-09 18:13:32.250458,7126,15332,-7493,12914,-8162,15701,-3072,2661,-3976,8111,7884,3412
2017-03-09 18:13:32.268332,-6530,15332,-1819,12914,-5521,15701,2039,2661,5446,8111,-9,11108
2017-03-09 18:13:32.290540,-6530,15332,-1819,12914,-5521,15701,2039,2661,5446,8111,-9,11108
2017-03-09 18:13:32.290756,-6530,15332,-1819,12914,-5521,15701,2039,2661,5446,8111,-9,11108
2017-03-09 18:13:32.305817,-3527,15332,2534,12120,1235,15701,-3746,2661,4565,8111,-1548,11108
2017-03-09 18:13:32.321185,-3527,15332,2534,12120,1235,15701,-3746,2661,4565,8111,-1548,11108
2017-03-09 18:13:32.341891,-3527,15332,2534,12120,1235,15701,-3746,2661,4565,8111,-1548,11108
2017-03-09 18:13:32.349927,4355,15332,-1404,12120,-4652,15701,1708,2661,-2778,8111,6229,11108
2017-03-09 18:13:32.367674,4355,15332,-1404,12120,-4652,15701,1708,2661,-2778,8111,6229,11108
2017-03-09 18:13:32.377869,4355,15332,-1404,12120,-4652,15701,1708,2661,-2778,8111,6229,11108
2017-03-09 18:13:32.382776,4355,15332,-1404,12120,-4652,15701,1708,2661,-2778,8111,6229,11108
2017-03-09 18:13:32.386965,4769,15332,954,12120,-4652,15701,1708,2661,-2778,8111,6229,11108
2017-03-09 18:13:32.404133,-5449,15332,2531,12120,-6250,15701,2185,2661,7272,8111,-6608,11108
2017-03-09 18:13:32.404440,-5449,15332,2531,12120,-6250,15701,2185,2661,7272,8111,-6608,11108
2017-03-09 18:13:32.428171,-5449,15332,2531,12120,-6250,15701,2185,2661,7272,8111,-6608,11108
2017-03-09 18:13:32.438331,-5449,15332,2531,12120,-6250,15701,2185,2661,7272,8111,-6608,11108
2017-03-09 18:13:32.443862,-5449,15332,2531,12120,-6250,15701,2185,2661,7272,8111,-6608,11108
2017-03-09 18:13:32.453819,-5449,15332,2531,12120,-6250,15701,2185,2661,7272,8111,-6608,11108
2017-03-09 18:13:32.463615,-5449,15332,2531,12120,-6250,15701,2185,2661,7272,8111,-6608,11108
2017-03-09 18:13:32.484928,-5449,15332,2531,12120,-6250,15701,2185,2661,7272,8111,-6608,11108
2017-03-09 18:13:32.493822,-5449,15332,2531,12120,-6250,15701,2185,2661,7272,8111,-6608,11108
2017-03-09 18:13:32.497620,499,15332,-3497,12120,7783,15701,-953,13141,-8049,8111,1539,11108
2017-03-09 18:13:32.504669,499,15332,-3497,12120,7783,15701,-953,13141,-8049,8111,1539,11108
2017-03-09 18:13:32.520358,499,15332,-3497,12120,7783,15701,-953,13141,-8049,8111,1539,11108
2017-03-09 18:13:32.538065,-3509,15332,7150,12120,-7484,15701,-3869,13141,-2773,8111,1445,11108
2017-03-09 18:13:32.561504,-3509,15332,7150,12120,-7484,15701,-3869,13141,-2773,8111,1445,11108
2017-03-09 18:13:32.581883,6855,15332,527,12120,6598,15701,-296,13141,8054,8111,-4338,11108
2017-03-09 18:13:32.594269,6855,15332,527,12120,6598,15701,-296,13141,8054,8111,-4338,11108
2017-03-09 18:13:32.607056,6855,15332,527,12120,6598,15701,-296,13141,8054,8111,-4338,11108
2017-03-09 18:13:32.631793,-4528,15332,2240,12120,1544,15701,3023,13141,-6889,8111,-5070,11108
2017-03-09 18:13:32.648427,-4528,15332,2240,12120,1544,15701,3023,13141,-6889,8111,-5070,11108
2017-03-09 18:13:32.648591,365,15332,7009,12120,-652,15701,-6510,13141,3776,8111,-2752,11108
2017-03-09 18:13:32.665293,365,15332,7009,12120,-652,15701,-6510,13141,3776,8111,-2752,11108
2017-03-09 18:13:32.665491,365,15332,7009,12120,-652,15701,-6510,13141,3776,8111,-2752,11108
2017-03-09 18:13:32.675094,365,15332,7009,12120,-652,15701,-6510,13141,3776,8111,-2752,11108
2017-03-09 18:13:32.691726,365,15332,7009,12120,-652,15701,-6510,13141,3776,8111,-2752,11108
2017-03-09 18:13:32.709914,2355,15332,-2244,12120,-1089,15701,2988,13141,-7569,8111,-3068,11108
2017-03-09 18:13:32.719580,2355,15332,-2244,12120,-1089,15701,2988,13141,-7569,8111,-3068,11108
2017-03-09 18:13:32.739122,3257,15332,-1225,12120,7565,15701,-4848,13141,1468,8111,7263,11108
2017-03-09 18:13:32.753978,3257,15332,-1225,12120,7565,15701,-4848,13141,1468,8111,7263,11108
2017-03-09 18:13:32.771570,3257,15332,-1225,12120,7565,15701,-4848,13141,1468,8111,7263,11108
2017-03-09 18:13:32.777888,3257,15332,-1225,12120,7565,15701,-4848,13141,1468,8111,7263,11108
2017-03-09 18:13:32.789222,4766,15332,3738,12120,2105,15701,888,13141,-5877,8111,-7386,11108
2017-03-09 18:13:32.799975,4766,15332,3738,12120,2105,15701,888,13141,-5877,8111,-7386,11108
2017-03-09 18:13:32.804598,7770,15332,6502,12120,-7672,15701,599,13141,-5626,8111,-2637,11108
2017-03-09 18:13:32.820252,7770,15332,6502,12120,-7672,15701,599,13141,-5626,8111,-2637,11108
2017-03-09 18:13:32.834218,4716,15332,6386,12120,-2109,15701,1027,13141,3440,8111,2414,11108
2017-03-09 18:13:32.841774,7936,15332,-22,12120,-1575,15701,1178,13141,-1988,8111,7293,11108
2017-03-09 18:13:32.858148,7936,15332,-22,12120,-1575,15701,1178,13141,-1988,8111,7293,11108
2017-03-09 18:13:32.889529,-4553,15332,6045,12120,7861,15701,-2356,13141,7345,8111,-3043,11108
2017-03-09 18:13:32.910589,-4553,15332,6045,12120,7861,15701,-2356,13141,7345,8111,-3043,11108
2017-03-09 18:13:32.918470,-5469,15332,2183,12120,-136,15701,5937,13141,-5308,8111,1453,11108
2017-03-09 18:13:32.931238,-5469,15332,2183,12120,-136,15701,5937,13141,-5308,8111,1453,11108
2017-03-09 18:13:32.945798,-5469,15332,2183,12120,-136,15701,5937,13141,-5308,8111,1453,11108
2017-03-09 18:13:32.954199,5807,15332,7243,12120,4082,15701,7895,13141,3272,8111,1212,11108
2017-03-09 18:13:32.966611,5807,15332,7243,12120,4082,15701,7895,13141,3272,8111,1212,11108
2017-03-09 18:13:32.987023,-8034,15332,1854,12120,-3443,15701,2928,13141,4000,8111,-6291,11108
2017-03-09 18:13:33.011375,-8034,15332,1854,12120,-3443,15701,2928,13141,4000,8111,-6291,11108
2017-03-09 18:13:33.042536,-8034,15332,1854,12120,-3443,15701,2928,13141,4000,8111,-6291,11108
2017-03-09 18:13:33.058933,-4616,15332,7533,12120,-5253,15701,-6119,13141,5991,8111,2097,11108
2017-03-09 18:13:33.067794,-4616,15332,7533,12120,-5253,15701,-6119,13141,5991,8111,2097,11108
2017-03-09 18:13:33.092859,-4616,15332,7533,12120,-5253,15701,-6119,13141,5991,8111,2097,11108
2017-03-09 18:13:33.103590,-4616,15332,7533,12120,-5253,15701,-6119,13141,5991,8111,2097,11108
2017-03-09 18:13:33.112477,1998,15332,-6655,12120,1154,15701,-1166,13141,-8170,8111,-6382,11108
2017-03-09 18:13:33.122617,-1893,15332,5762,12120,-2967,15701,-2057,13141,345,8111,-7676,11108
2017-03-09 18:13:33.135421,-1893,15332,5762,12120,-2967,15701,-2057,13141,345,8111,-7676,11108
2017-03-09 18:13:33.150342,1108,15332,-8181,12120,7738,15701,4527,13141,-4683,8111,6391,11108
2017-03-09 18:13:33.158033,1108,15332,-8181,12120,7738,15701,4527,13141,-4683,8111,6391,11108
2017-03-09 18:13:33.171979,1108,15332,-8181,12120,7738,15701,4527,13141,-4683,8111,6391,11108
2017-03-09 18:13:33.187688,4539,15332,6045,12120,6319,15701,-990,13141,-2287,8111,777,11108
2017-03-09 18:13:33.188683,4539,15332,6045,12120,6319,15701,-990,13141,-2287,8111,777,11108
2017-03-09 18:13:33.205167,4539,15332,6045,12120,6319,15701,-990,13141,-2287,8111,777,11108
2017-03-09 18:13:33.223611,7020,15332,-6890,12120,-1269,15701,7291,13141,2928,8111,-5514,11108
2017-03-09 18:13:33.233536,7020,15332,-6890,12120,-1269,15701,7291,13141,2928,8111,-5514,11108
2017-03-09 18:13:33.241495,7020,15332,-6890,12120,-1269,15701,7291,13141,2928,8111,-5514,11108
2017-03-09 18:13:33.251469,7020,15332,-6890,12120,-1269,15701,7291,13141,2928,8111,-5514,11108
2017-03-09 18:13:33.257699,7020,15332,-6890,12120,-1269,15701,7291,13141,2928,8111,-5514,11108
2017-03-09 18:13:33.273872,7020,15332,-6890,12120,-1269,15701,7291,13141,2928,8111,-5514,11108
2017-03-09 18:13:33.282764,7020,15332,-6890,12120,-1269,15701,7291,13141,2928,8111,-5514,11108
2017-03-09 18:13:33.293202,7020,15332,-6890,12120,-1269,15701,7291,13141,2928,8111,-5514,11108
2017-03-09 18:13:33.301395,7020,15332,-6890,12120,-1269,15701,7291,13141,2928,8111,-5514,11108
2017-03-09 18:13:33.318210,1747,15332,4452,12120,466,15701,748,13141,-5744,8111,-6481,11108
2017-03-09 18:13:33.325704,1747,15332,4452,12120,466,15701,748,13141,-5744,8111,-6481,11108
2017-03-09 18:13:33.337076,1747,15332,4452,12120,466,15701,748,13141,-5744,8111,-6481,11108
2017-03-09 18:13:33.348439,-7536,15332,-3901,12120,-4352,15701,-2336,13141,3127,8111,4008,11108
2017-03-09 18:13:33.362189,-7536,15332,-3901,12120,-4352,15701,-2336,13141,3127,8111,4008,11108
2017-03-09 18:13:33.381641,-7536,15332,-3901,12120,-4352,15701,-2336,13141,3127,8111,4008,11108
2017-03-09 18:13:33.404448,-7536,15332,-3901,12120,-4352,15701,-2336,13141,3127,8111,4008,11108
2017-03-09 18:13:33.404539,-7536,15332,-3901,12120,-4352,15701,-2336,13141,3127,8111,4008,11108
2017-03-09 18:13:33.413710,-7536,15332,-3901,12120,-4352,15701,-2336,13141,3127,8111,4008,11108
2017-03-09 18:13:33.414580,-7536,15332,-3901,12120,-4352,15701,-2336,13141,3127,8111,4008,11108
2017-03-09 18:13:33.448710,-7536,15332,-3901,12120,-4352,15701,-2336,13141,3127,8111,4008,11108
2017-03-09 18:13:33.448982,-7536,15332,-3901,12120,-4352,15701,-2336,13141,3127,8111,4008,11108
2017-03-09 18:13:33.449024,-7536,15332,-3901,12120,-4352,15701,-2336,13141,3127,8111,4008,11108
2017-03-09 18:13:33.463168,-7536,15332,-3901,12120,-4352,15701,-2336,13141,3127,8111,4008,11108
2017-03-09 18:13:33.469453,7443,15332,-691,12120,855,15701,-1107,13141,3181,8111,7845,11108
2017-03-09 18:13:33.473923,7443,15332,-691,12120,855,15701,-1107,13141,3181,8111,7845,11108
2017-03-09 18:13:33.486415,7443,15332,-691,12120,855,15701,-1107,13141,3181,8111,7845,11108
2017-03-09 18:13:33.504682,-2702,15332,-7532,12120,-1095,15701,5619,13141,7524,8111,-2434,11108
2017-03-09 18:13:33.526213,-2702,15332,-7532,12120,-1095,15701,5619,13141,7524,8111,-2434,11108
2017-03-09 18:13:33.565132,-1669,15332,2671,12120,7721,15701,-604,13141,-3442,8111,2769,11108
2017-03-09 18:13:33.565377,-1669,15332,2671,12120,7721,15701,-604,13141,-3442,8111,2769,11108
2017-03-09 18:13:33.576347,-1669,15332,2671,12120,7721,15701,-604,13141,-3442,8111,2769,11108
2017-03-09 18:13:33.590894,-1669,15332,2671,12120,7721,15701,-604,13141,-3442,8111,2769,11108
2017-03-09 18:13:33.591071,-1669,15332,2671,12120,7721,15701,-604,13141,-3442,8111,2769,11108
2017-03-09 18:13:33.598526,-1669,15332,2671,12120,7721,15701,-604,13141,-3442,8111,2769,11108
2017-03-09 18:13:33.610170,-571,15332,7535,12120,6459,15701,-6912,13141,1417,8111,-279,11108
2017-03-09 18:13:33.626474,-571,15332,7535,12120,6459,15701,-6912,13141,1417,8111,-279,11108
2017-03-09 18:13:33.631208,-4882,15332,1002,12120,4637,15701,-2800,13141,-4753,8111,2011,11108
2017-03-09 18:13:33.656304,-4882,15332,1002,12120,4637,15701,-2800,13141,-4753,8111,2011,11108
2017-03-09 18:13:33.671063,-4882,15332,1002,12120,4637,15701,-2800,13141,-4753,8111,2011,11108
2017-03-09 18:13:33.675747,-4882,15332,1002,12120,4637,15701,-2800,13141,-4753,8111,2011,11108
2017-03-09 18:13:33.685853,5507,15332,-639,12120,-7346,15701,3995,13141,-2668,9090,1831,11108
2017-03-09 18:13:33.698259,5507,15332,-639,12120,-7346,15701,3995,13141,-2668,9090,1831,11108
2017-03-09 18:13:33.702984,5507,15332,-639,12120,-7346,15701,3995,13141,-2668,9090,1831,11108
2017-03-09 18:13:33.716446,5507,15332,-639,12120,-7346,15701,3995,13141,-2668,9090,1831,11108
2017-03-09 18:13:33.733960,-99,15332,-6511,12120,2921,15701,-5896,13141,-5347,9090,3849,11108
2017-03-09 18:13:33.761119,-99,15332,-6511,12120,2921,15701,-5896,13141,-5347,9090,3849,11108
2017-03-09 18:13:33.761746,-99,15332,-6511,12120,2921,15701,-5896,13141,-5347,9090,3849,11108
2017-03-09 18:13:33.768206,-99,15332,-6511,12120,2921,15701,-5896,13141,-5347,9090,3849,11108
2017-03-09 18:13:33.774058,-99,15332,-6511,12120,2921,15701,-5896,13141,-5347,9090,3849,11108
2017-03-09 18:13:33.781533,-3440,15332,-4260,12120,-810,15701,-5820,13141,-1060,9090,867,11108
2017-03-09 18:13:33.792630,-3440,15332,-4260,12120,-810,15701,-5820,13141,-1060,9090,867,11108
2017-03-09 18:13:33.799360,-3440,15332,-4260,12120,-810,15701,-5820,13141,-1060,9090,867,11108
2017-03-09 18:13:33.818325,-3440,15332,-4260,12120,-810,15701,-5820,13141,-1060,9090,867,11108
2017-03-09 18:13:33.825027,-4053,15332,-4796,12120,-6316,15701,6302,13141,-4157,9090,2040,11108
2017-03-09 18:13:33.861548,1173,15332,4292,12120,305,15701,6343,13141,-2429,9090,707,11108
2017-03-09 18:13:33.862196,1173,15332,4292,12120,305,15701,6343,13141,-2429,9090,707,11108
2017-03-09 18:13:33.882071,1173,15332,4292,12120,305,15701,6343,13141,-2429,9090,707,11108
2017-03-09 18:13:33.882893,1173,15332,4292,12120,305,15701,6343,13141,-2429,9090,707,11108
2017-03-09 18:13:33.893154,-7044,15332,4335,12120,4767,15701,2541,13141,-2040,8921,-5816,11108
2017-03-09 18:13:33.893205,-7044,15332,4335,12120,4767,15701,2541,13141,-2040,8921,-5816,11108
2017-03-09 18:13:33.903527,-7044,15332,4335,12120,4767,15701,2541,13141,-2040,8921,-5816,11108
2017-03-09 18:13:33.915223,-7044,15332,4335,12120,4767,15701,2541,13141,-2040,8921,-5816,11108
2017-03-09 18:13:33.924428,-7044,15332,4335,12120,4767,15701,2541,13141,-2040,8921,-5816,11108
2017-03-09 18:13:33.938964,5129,15332,-2984,12120,-4716,15701,5985,13141,-7124,8921,-8036,11108
2017-03-09 18:13:33.950596,5129,15332,-2984,12120,-4716,15701,5985,13141,-7124,8921,-8036,11108
2017-03-09 18:13:33.963569,5129,15332,-2984,12120,-4716,15701,5985,13141,-7124,8921,-8036,11108
2017-03-09 18:13:33.968416,5129,15332,-2984,12120,-4716,15701,5985,13141,-7124,8921,-8036,11108
2017-03-09 18:13:33.979651,5129,15332,-2984,12120,-4716,15701,5985,13141,-7124,8921,-8036,11108
2017-03-09 18:13:33.999210,-6990,15332,-1678,12120,1873,15701,-615,13141,3126,8921,-5122,11108
2017-03-09 18:13:34.009856,-6990,15332,-1678,12120,1873,15701,-615,13141,3126,8921,-5122,11108
2017-03-09 18:13:34.017902,-7639,15332,3761,2765,2735,15701,-1468,9346,-1010,8921,-5920,11108
2017-03-09 18:13:34.023402,-7639,15332,3761,2765,2735,15701,-1468,9346,-1010,8921,-5920,11108
2017-03-09 18:13:34.041822,-7639,15332,3761,2765,2735,15701,-1468,9346,-1010,8921,-5920,11108
2017-03-09 18:13:34.046030,-7639,15332,3761,2765,2735,15701,-1468,9346,-1010,8921,-5920,11108
2017-03-09 18:13:34.059041,-7639,15332,3761,2765,2735,15701,-1468,9346,-1010,8921,-5920,11108
2017-03-09 18:13:34.065571,117,15332,-6440,2765,8138,15701,5379,9346,-863,8921,-1338,11108
2017-03-09 18:13:34.074182,117,15332,-6440,2765,8138,15701,5379,9346,-863,8921,-1338,11108
2017-03-09 18:13:34.084495,117,15332,-6440,2765,8138,15701,5379,9346,-863,8921,-1338,11108
2017-03-09 18:13:34.105147,4533,15332,-4047,2765,1183,15701,4295,9346,2768,8921,1940,11108
2017-03-09 18:13:34.116304,4533,15332,-4047,2765,1183,15701,4295,9346,2768,8921,1940,11108
2017-03-09 18:13:34.189957,4533,15332,-4047,2765,1183,15701,4295,9346,2768,8921,1940,11108
2017-03-09 18:13:34.190653,4533,15332,-4047,2765,1183,15701,4295,9346,2768,8921,1940,11108
2017-03-09 18:13:34.203189,-5577,15332,-2931,2765,7386,15701,2368,9346,7904,8921,4462,12945
2017-03-09 18:13:34.203296,-5577,15332,-2931,2765,7386,15701,2368,9346,7904,8921,4462,12945
2017-03-09 18:13:34.208410,-5577,15332,-2931,2765,7386,15701,2368,9346,7904,8921,4462,12945
2017-03-09 18:13:34.225546,-5577,15332,-2931,2765,7386,15701,2368,9346,7904,8921,4462,12945
2017-03-09 18:13:34.225728,-5577,15332,-2931,2765,7386,15701,2368,9346,7904,8921,4462,12945
2017-03-09 18:13:34.233851,-5577,15332,-2931,2765,7386,15701,2368,9346,7904,8921,4462,12945
2017-03-09 18:13:34.247858,-5577,15332,-2931,2765,7386,15701,2368,9346,7904,8921,4462,12945
2017-03-09 18:13:34.265767,-5577,15332,-2931,2765,7386,15701,2368,9346,7904,8921,4462,12945
2017-03-09 18:13:34.272558,-7224,15332,2891,2765,-2694,1945,6591,9346,-7167,8921,-5398,12945
2017-03-09 18:13:34.302562,-7224,15332,2891,2765,-2694,1945,6591,9346,-7167,8921,-5398,12945
2017-03-09 18:13:34.334450,-7224,15332,2891,2765,-2694,1945,6591,9346,-7167,8921,-5398,12945
2017-03-09 18:13:34.354580,-7224,15332,2891,2765,-2694,1945,6591,9346,-7167,8921,-5398,12945
2017-03-09 18:13:34.359278,4849,15332,4680,2765,-11,1945,-6829,9346,-5273,8921,4283,12945
2017-03-09 18:13:34.376704,4849,15332,4680,2765,-11,1945,-6829,9346,-5273,8921,4283,12945
2017-03-09 18:13:34.395411,-7888,15332,4553,2765,-7488,1945,-5986,9346,-3766,8921,7392,12945
2017-03-09 18:13:34.401097,-7888,15332,4553,2765,-7488,1945,-5986,9346,-3766,8921,7392,12945
2017-03-09 18:13:34.420288,-7888,15332,4553,2765,-7488,1945,-5986,9346,-3766,8921,7392,12945
2017-03-09 18:13:34.420474,-1272,15332,-2622,2765,5774,1945,-5326,9346,479,8921,-5085,12945
2017-03-09 18:13:34.434902,-1272,15332,-2622,2765,5774,1945,-5326,9346,479,8921,-5085,12945
2017-03-09 18:13:34.437833,-1272,15332,-2622,2765,5774,1945,-5326,9346,479,8921,-5085,12945
2017-03-09 18:13:34.455771,2779,15332,-7012,2765,-4428,1945,303,9346,-6125,8921,-2038,12945
2017-03-09 18:13:34.465536,2779,15332,-7012,2765,-4428,1945,303,9346,-6125,8921,-2038,12945
2017-03-09 18:13:34.475183,2779,15332,-7012,2765,-4428,1945,303,9346,-6125,8921,-2038,12945
2017-03-09 18:13:34.481737,2779,15332,-7012,2765,-4428,1945,303,9346,-6125,8921,-2038,12945
2017-03-09 18:13:34.486353,2779,15332,-7012,2765,-4428,1945,303,9346,-6125,8921,-2038,12945
2017-03-09 18:13:34.494136,2779,15332,-7012,2765,-4428,1945,303,9346,-6125,8921,-2038,12945
2017-03-09 18:13:34.504183,-7231,15332,7568,2765,5135,1945,-4365,9346,7994,8921,-6744,12945
2017-03-09 18:13:34.517554,-7231,15332,7568,2765,5135,1945,-4365,9346,7994,8921,-6744,12945
2017-03-09 18:13:34.524318,-7231,15332,7568,2765,5135,1945,-4365,9346,7994,8921,-6744,12945
2017-03-09 18:13:34.525525,624,15332,-5017,2765,804,1945,591,9346,-8123,8921,-2096,12945
2017-03-09 18:13:34.539634,624,15332,-5017,2765,804,1945,591,9346,-8123,8921,-2096,12945
2017-03-09 18:13:34.554943,4486,15332,-6568,2765,2784,1945,7853,9346,1024,8921,1728,12945
2017-03-09 18:13:34.561429,4486,15332,-6568,2765,2784,1945,7853,9346,1024,8921,1728,12945
2017-03-09 18:13:34.579284,4486,15332,-6568,2765,2784,1945,7853,9346,1024,8921,1728,12945
2017-03-09 18:13:34.606257,612,15332,-2708,2765,-2709,1945,6616,9346,1354,8921,-1647,12945
2017-03-09 18:13:34.614090,612,15332,-2708,2765,-2709,1945,6616,9346,1354,8921,-1647,12945
2017-03-09 18:13:34.627768,-6491,15332,416,2765,2593,1945,-6183,9346,4581,8921,-994,12945
2017-03-09 18:13:34.646250,4208,15332,-1788,2765,5347,1945,7873,9346,1195,8921,-8171,12945
2017-03-09 18:13:34.653865,4208,15332,-1788,2765,5347,1945,7873,9346,1195,8921,-8171,12945
2017-03-09 18:13:34.664254,4208,15332,-1788,2765,5347,1945,7873,9346,1195,8921,-8171,12945
2017-03-09 18:13:34.682282,-1131,15746,3118,2765,4329,1945,-3093,9346,6104,8921,-6864,12945
2017-03-09 18:13:34.702445,-1131,15746,3118,2765,4329,1945,-3093,9346,6104,8921,-6864,12945
2017-03-09 18:13:34.703542,-1131,15746,3118,2765,4329,1945,-3093,9346,6104,8921,-6864,12945
2017-03-09 18:13:34.755167,-4857,15746,4552,2765,-7862,1945,-238,9346,3664,8921,-770,12945
2017-03-09 18:13:34.755825,7810,15746,-201,2765,887,1945,-5114,9346,6866,8921,-622,12945
2017-03-09 18:13:34.762499,1574,15746,-6563,2765,-6050,1945,-132,9346,-4589,8921,-3723,12945
2017-03-09 18:13:34.783079,1574,15746,-6563,2765,-6050,1945,-132,9346,-4589,8921,-3723,12945
2017-03-09 18:13:34.783215,1574,15746,-6563,2765,-6050,1945,-132,9346,-4589,8921,-3723,12945
2017-03-09 18:13:34.786459,7568,15746,-660,2765,-800,1945,-556,9346,-2352,8921,-4653,12945
2017-03-09 18:13:34.798081,7568,15746,-660,2765,-800,1945,-556,9346,-2352,8921,-4653,12945
2017-03-09 18:13:34.819894,7568,15746,-660,2765,-800,1945,-556,9346,-2352,8921,-4653,12945
2017-03-09 18:13:34.843506,7568,15746,-660,2765,-800,1945,-556,9346,-2352,8921,-4653,12945
2017-03-09 18:13:34.849977,1155,15746,5990,2765,-3821,1945,7638,9346,-1250,8921,2927,12945
2017-03-09 18:13:34.863666,1155,15746,5990,2765,-3821,1945,7638,9346,-1250,8921,2927,12945
2017-03-09 18:13:34.887020,490,15746,-1993,2765,-2090,1945,4869,9346,1174,8921,-1782,12945
2017-03-09 18:13:34.899150,490,15746,-1993,2765,-2090,1945,4869,9346,1174,8921,-1782,12945
2017-03-09 18:13:34.911865,490,15746,-1993,2765,-2090,1945,4869,9346,1174,8921,-1782,12945
2017-03-09 18:13:34.926182,3585,15746,-5573,2765,4947,1945,2790,9346,-5288,8921,4871,12945
2017-03-09 18:13:34.926298,3585,15746,-5573,2765,4947,1945,2790,9346,-5288,8921,4871,12945
2017-03-09 18:13:34.938562,3585,15746,-5573,2765,4947,1945,2790,9346,-5288,8921,4871,12945
2017-03-09 18:13:34.949988,3585,15746,-5573,2765,4947,1945,2790,9346,-5288,8921,4871,12945
2017-03-09 18:13:34.974330,3585,15746,-5573,2765,4947,1945,2790,9346,-5288,8921,4871,12945
2017-03-09 18:13:34.974556,-2217,15746,-7216,2765,-3870,1945,2304,9346,-2190,8921,1214,12945
2017-03-09 18:13:34.979215,-22,15746,5002,2765,7762,1945,-7070,9346,-5795,8921,3623,12945
2017-03-09 18:13:34.987286,-22,15746,5002,2765,7762,1945,-7070,9346,-5795,8921,3623,12945
2017-03-09 18:13:35.004515,5389,15746,5643,2765,1491,7692,-1817,9346,3567,8921,4575,12945
2017-03-09 18:13:35.022444,5389,15746,5643,2765,1491,7692,-1817,9346,3567,8921,4575,12945
2017-03-09 18:13:35.022619,5389,15746,5643,2765,1491,7692,-1817,9346,3567,8921,4575,12945
2017-03-09 18:13:35.025447,5389,15746,5643,2765,1491,7692,-1817,9346,3567,8921,4575,12945
2017-03-09 18:13:35.030173,5389,15746,5643,2765,1491,7692,-1817,9346,3567,8921,4575,12945
2017-03-09 18:13:35.045526,5389,15746,5643,2765,1491,7692,-1817,9346,3567,8921,4575,12945
2017-03-09 18:13:35.059232,5389,15746,5643,2765,1491,7692,-1817,9346,3567,8921,4575,12945
2017-03-09 18:13:35.077237,5389,15746,5643,2765,1491,7692,-1817,9346,3567,8921,4575,12945
2017-03-09 18:13:35.086797,5389,15746,5643,2765,1491,7692,-1817,9346,3567,8921,4575,12945
2017-03-09 18:13:35.098246,7602,15746,-2896,2765,3269,7692,-7514,9346,-3873,8921,3931,12945
2017-03-09 18:13:35.108973,2782,15746,-3114,2765,-4249,7692,-4357,9346,2094,8921,5171,12945
2017-03-09 18:13:35.109454,4751,15746,-7869,2765,-3008,7692,1493,9346,-7169,8921,-4517,12945
2017-03-09 18:13:35.125403,-2660,15746,-7869,2765,-3008,7692,1493,9346,-7169,8921,-4517,12945
2017-03-09 18:13:35.141843,-2166,15746,6226,2765,-6197,7692,5771,9346,3103,8921,-5576,12945
2017-03-09 18:13:35.168973,6847,15746,-5187,2765,-6558,7692,4839,9346,2592,8921,7946,12945
2017-03-09 18:13:35.170040,6847,15746,-5187,2765,-6558,7692,4839,9346,2592,8921,7946,12945
2017-03-09 18:13:35.180150,6847,15746,-5187,2765,-6558,7692,4839,9346,2592,8921,7946,12945
2017-03-09 18:13:35.191963,6847,15746,-5187,2765,-6558,7692,4839,9346,2592,8921,7946,12945
2017-03-09 18:13:35.212480,-6500,15746,-2368,2765,-845,7692,-7747,9346,4488,8921,-451,12945
2017-03-09 18:13:35.226724,-6500,15746,-2368,2765,-845,7692,-7747,9346,4488,8921,-451,12945
2017-03-09 18:13:35.238605,-6500,15746,-2368,2765,-845,7692,-7747,9346,4488,8921,-451,12945
2017-03-09 18:13:35.255955,7164,15746,-131,2765,-5658,7692,1105,9346,-6748,8921,4795,12945
2017-03-09 18:13:35.257515,7164,15746,-131,2765,-5658,7692,1105,9346,-6748,8921,4795,12945
2017-03-09 18:13:35.277026,7164,15746,-131,2765,-5658,7692,1105,9346,-6748,8921,4795,12945
2017-03-09 18:13:35.277228,7164,15746,-131,2765,-5658,7692,1105,9346,-6748,8921,4795,12945
2017-03-09 18:13:35.296927,4037,15746,-2424,2765,7711,7692,2209,9346,4219,8921,-2439,12945
2017-03-09 18:13:35.302918,4037,15746,-2424,2765,7711,7692,2209,9346,4219,8921,-2439,12945
2017-03-09 18:13:35.329003,4037,15746,-2424,2765,7711,7692,2209,9346,4219,8921,-2439,12945
2017-03-09 18:13:35.342242,2508,15746,1551,2765,3963,3381,3286,9346,-2379,8921,5092,12945
2017-03-09 18:13:35.346607,2508,15746,1551,2765,3963,3381,3286,9346,-2379,8921,5092,12945
2017-03-09 18:13:35.359905,2508,15746,1551,2765,3963,3381,3286,9346,-2379,8921,5092,12945
2017-03-09 18:13:35.371447,2508,15746,1551,2765,3963,3381,3286,9346,-2379,8921,5092,12945
2017-03-09 18:13:35.379536,2508,15746,1551,2765,3963,3381,3286,9346,-2379,8921,5092,12945
2017-03-09 18:13:35.401619,2508,15746,1551,2765,3963,3381,3286,9346,-2379,8921,5092,12945
2017-03-09 18:13:35.401791,4532,15746,664,2765,-6512,3381,-465,9346,1465,8921,2522,12945
2017-03-09 18:13:35.415706,4532,15746,664,2765,-6512,3381,-465,9346,1465,8921,2522,12945
2017-03-09 18:13:35.430036,4532,15746,664,2765,-6512,3381,-465,9346,1465,8921,2522,12945
2017-03-09 18:13:35.439667,4881,15746,-471,2765,-2734,3381,-4918,9346,2791,8921,3421,12945
2017-03-09 18:13:35.445120,4881,15746,-471,2765,-2734,3381,-4918,9346,2791,8921,3421,12945
2017-03-09 18:13:35.462558,4881,15746,-471,2765,-2734,3381,-4918,9346,2791,8921,3421,12945
2017-03-09 18:13:35.470171,4881,15746,-471,2765,-2734,3381,-4918,9346,2791,8921,3421,12945
2017-03-09 18:13:35.496116,7337,15746,5612,2765,-5247,3381,-1501,9346,-5514,8921,5529,12945
2017-03-09 18:13:35.504103,7337,15746,5612,2765,-5247,3381,-1501,9346,-5514,8921,5529,12945
2017-03-09 18:13:35.511492,7337,15746,5612,2765,-5247,3381,-1501,9346,-5514,8921,5529,12945
2017-03-09 18:13:35.522746,7337,15746,5612,2765,-5247,3381,-1501,9346,-5514,8921,5529,12945
2017-03-09 18:13:35.522936,7337,15746,5612,2765,-5247,3381,-1501,9346,-5514,8921,5529,12945
2017-03-09 18:13:35.547261,7337,15746,5612,2765,-5247,3381,-1501,9346,-5514,8921,5529,12945
2017-03-09 18:13:35.558030,3202,15746,2746,2765,5314,3381,3963,9346,7415,8921,2216,12945
2017-03-09 18:13:35.558307,3202,15746,2746,2765,5314,3381,3963,9346,7415,8921,2216,12945
2017-03-09 18:13:35.558512,3202,15746,2746,2765,5314,3381,3963,9346,7415,8921,2216,12945
2017-03-09 18:13:35.590659,3202,15746,2746,2765,5314,3381,3963,9346,7415,8921,2216,12945
2017-03-09 18:13:35.590725,-6227,15746,4248,2765,68,3381,-5046,9346,6270,8921,5348,12945
2017-03-09 18:13:35.590800,-4437,15746,6594,2765,-3060,3381,7247,9346,7772,8921,4175,12945
2017-03-09 18:13:35.607854,-4437,15746,6594,2765,-3060,3381,7247,9346,7772,8921,4175,12945
2017-03-09 18:13:35.608064,-4437,15746,6594,2765,-3060,3381,7247,9346,7772,8921,4175,12945
2017-03-09 18:13:35.611371,-4437,15746,6594,2765,-3060,3381,7247,9346,7772,8921,4175,12945
2017-03-09 18:13:35.636370,-4437,15746,6594,2765,-3060,3381,7247,9346,7772,8921,4175,12945
2017-03-09 18:13:35.636571,-4437,15746,6594,2765,-3060,3381,7247,9346,7772,8921,4175,12945
2017-03-09 18:13:35.660151,4678,15746,5942,2765,-5773,3381,1785,9346,6346,8921,5227,12945
2017-03-09 18:13:35.669400,4678,15746,5942,2765,-5773,3381,1785,9346,6346,8921,5227,12945
2017-03-09 18:13:35.683661,4678,15746,5942,2765,-5773,3381,1785,9346,6346,8921,5227,12945
2017-03-09 18:13:35.683853,4678,15746,5942,2765,-5773,3381,1785,9346,6346,8921,5227,12945
2017-03-09 18:13:35.689633,4619,15746,1875,2765,-61,3381,6722,9346,-80,8921,-5437,12945
2017-03-09 18:13:35.706886,4619,15746,1875,2765,-61,3381,6722,9346,-80,8921,-5437,12945
2017-03-09 18:13:35.706970,464,15746,-862,2765,-6099,3381,4385,9346,4295,8921,2050,12945
2017-03-09 18:13:35.715879,464,15746,-862,2765,-6099,3381,4385,9346,4295,8921,2050,12945
2017-03-09 18:13:35.723205,-2301,15746,5033,2765,-430,3381,7594,9346,-8086,8921,1676,12945
2017-03-09 18:13:35.730700,-2301,15746,5033,2765,-430,3381,7594,9346,-8086,8921,1676,12945
2017-03-09 18:13:35.737745,-2301,15746,5033,2765,-430,3381,7594,9346,-8086,8921,1676,12945
2017-03-09 18:13:35.743907,-2044,15746,-4370,2765,1333,3381,1592,9346,4161,8921,2771,12945
2017-03-09 18:13:35.758885,-2044,15746,-4370,2765,1333,3381,1592,9346,4161,8921,2771,12945
2017-03-09 18:13:35.759105,-2044,15746,-4370,2765,1333,3381,1592,9346,4161,8921,2771,12945
2017-03-09 18:13:35.776101,-1172,15746,6891,2765,8129,3381,-1334,9346,-774,8921,2151,12945
2017-03-09 18:13:35.796626,-1172,15746,6891,2765,8129,3381,-1334,9346,-774,8921,2151,12945
2017-03-09 18:13:35.842218,-4327,15746,-5102,2765,-8035,3381,2762,9346,-5206,8921,2557,12945
2017-03-09 18:13:35.842827,-4327,15746,-5102,2765,-8035,3381,2762,9346,-5206,8921,2557,12945
2017-03-09 18:13:35.852562,-4327,15746,-5102,2765,-8035,3381,2762,9346,-5206,8921,2557,12945
2017-03-09 18:13:35.859814,-4327,15746,-5102,2765,-8035,3381,2762,9346,-5206,8921,2557,12945
2017-03-09 18:13:35.872945,4504,15746,-2599,2765,7630,3381,-3477,9346,-6934,8921,-6333,12945
2017-03-09 18:13:35.873700,4504,15746,-2599,2765,7630,3381,-3477,9346,-6934,8921,-6333,12945
2017-03-09 18:13:35.879242,4504,15746,-2599,2765,7630,3381,-3477,9346,-6934,8921,-6333,12945
2017-03-09 18:13:35.891210,4504,15746,-2599,2765,7630,3381,-3477,9346,-6934,8921,-6333,12945
2017-03-09 18:13:35.902287,-583,15746,516,2765,143,3381,-7092,9346,5154,8921,2809,12945
2017-03-09 18:13:35.902919,-583,15746,516,2765,143,3381,-7092,9346,5154,8921,2809,12945
2017-03-09 18:13:35.920079,-583,15746,516,2765,143,3381,-7092,9346,5154,8921,2809,12945
2017-03-09 18:13:35.929254,-583,15746,516,2765,143,3381,-7092,9346,5154,8921,2809,12945
2017-03-09 18:13:35.936077,4454,15746,-5370,2765,-7026,3381,6415,9346,6569,8921,2728,12945
2017-03-09 18:13:35.958363,4454,15746,-5370,2765,-7026,3381,6415,9346,6569,8921,2728,12945
2017-03-09 18:13:35.970053,4454,15746,-5370,2765,-7026,3381,6415,9346,6569,8921,2728,12945
2017-03-09 18:13:35.981961,4454,15746,-5370,2765,-7026,3381,6415,9346,6569,8921,2728,12945
2017-03-09 18:13:36.003634,4931,15746,-322,2765,2663,3381,3834,9346,-5025,8921,2902,12945
2017-03-09 18:13:36.009734,4931,15746,-322,2765,2663,3381,3834,9346,-5025,8921,2902,12945
2017-03-09 18:13:36.028697,4931,15746,-322,2765,2663,3381,3834,9346,-5025,8921,2902,12945
2017-03-09 18:13:36.046605,6642,15746,6004,2765,-5275,3381,-7936,9346,-6608,8921,-5408,12945
2017-03-09 18:13:36.053135,6642,15746,6004,2765,-5275,3381,-7936,9346,-6608,8921,-5408,12945
2017-03-09 18:13:36.057507,6642,15746,6004,2765,-5275,3381,-7936,9346,-6608,8921,-5408,12945
2017-03-09 18:13:36.075846,6642,15746,6004,2765,-5275,3381,-7936,9346,-6608,8921,-5408,12945
2017-03-09 18:13:36.082498,6642,15746,6004,2765,-5275,3381,-7936,9346,-6608,8921,-5408,12945
2017-03-09 18:13:36.098083,6642,15746,6004,2765,-5275,3381,-7936,9346,-6608,8921,-5408,12945
2017-03-09 18:13:36.115651,6642,15746,6004,2765,-5275,3381,-7936,9346,-6608,8921,-5408,12945
2017-03-09 18:13:36.125649,6642,15746,6004,2765,-5275,3381,-7936,9346,-6608,8921,-5408,12945
2017-03-09 18:13:36.133171,6642,15746,6004,2765,-5275,3381,-7936,9346,-6608,8921,-5408,12945
2017-03-09 18:13:36.149670,6642,15746,6004,2765,-5275,3381,-7936,9346,-6608,8921,-5408,12945
2017-03-09 18:13:36.162852,6642,15746,6004,2765,-5275,3381,-7936,9346,-6608,8921,-5408,12945
2017-03-09 18:13:36.175765,511,15746,5739,2765,-7178,3381,1830,9346,1734,8921,7924,12945
2017-03-09 18:13:36.189821,1482,15746,3231,2765,5783,3381,-6973,9346,3655,8921,-3547,12945
2017-03-09 18:13:36.219010,1482,15746,3231,2765,5783,3381,-6973,9346,3655,8921,-3547,12945
2017-03-09 18:13:36.237410,1482,15746,3231,2765,5783,3381,-6973,9346,3655,8921,-3547,12945
2017-03-09 18:13:36.237569,4656,15746,-8125,10688,-3688,3381,-2930,9346,-1835,8921,221,12945
2017-03-09 18:13:36.248805,4656,15746,-8125,10688,-3688,3381,-2930,9346,-1835,8921,221,12945
2017-03-09 18:13:36.256850,4656,15746,-8125,10688,-3688,3381,-2930,9346,-1835,8921,221,12945
2017-03-09 18:13:36.257282,4656,15746,-8125,10688,-3688,3381,-2930,9346,-1835,8921,221,12945
2017-03-09 18:13:36.267076,4656,15746,-8125,10688,-3688,3381,-2930,9346,-1835,8921,221,12945
2017-03-09 18:13:36.271972,3172,15746,4277,10688,-6352,3381,-3699,9346,5688,8921,7047,12945
2017-03-09 18:13:36.277810,3172,15746,4277,10688,-6352,3381,-3699,9346,5688,8921,7047,12945
2017-03-09 18:13:36.282882,3172,15746,4277,10688,-6352,3381,-3699,9346,5688,8921,7047,12945
2017-03-09 18:13:36.299446,3172,15746,4277,10688,-6352,3381,-3699,9346,5688,8921,7047,12945
2017-03-09 18:13:36.307969,3172,15746,4277,10688,-6352,3381,-3699,9346,5688,8921,7047,12945
2017-03-09 18:13:36.343257,3172,15746,4277,10688,-6352,3381,-3699,9346,5688,8921,7047,12945
2017-03-09 18:13:36.343503,3172,15746,4277,10688,-6352,3381,-3699,9346,5688,8921,7047,12945
2017-03-09 18:13:36.355837,3172,15746,4277,10688,-6352,3381,-3699,9346,5688,8921,7047,12945
2017-03-09 18:13:36.393425,3172,15746,4277,10688,-6352,3381,-3699,9346,5688,8921,7047,12945
2017-03-09 18:13:36.414491,3172,15746,4277,10688,-6352,3381,-3699,9346,5688,8921,7047,12945
2017-03-09 18:13:36.430801,7196,13461,6926,13795,5211,3381,1920,9346,5500,8921,-3959,12945
2017-03-09 18:13:36.431312,7196,13461,6926,13795,5211,3381,1920,9346,5500,8921,-3959,12945
2017-03-09 18:13:36.450459,7196,13461,6926,13795,5211,3381,1920,9346,5500,8921,-3959,12945
2017-03-09 18:13:36.451068,7196,13461,6926,13795,5211,3381,1920,9346,5500,8921,-3959,12945
2017-03-09 18:13:36.453760,-3305,13461,-1288,13795,2529,9756,-2121,9346,5281,8921,2466,12945
2017-03-09 18:13:36.459123,-3305,13461,-1288,13795,2529,9756,-2121,9346,5281,8921,2466,12945
2017-03-09 18:13:36.484913,-3305,13461,-1288,13795,2529,9756,-2121,9346,5281,8921,2466,12945
2017-03-09 18:13:36.494423,-3305,13461,-1288,13795,2529,9756,-2121,9346,5281,8921,2466,12945
2017-03-09 18:13:36.505790,-3305,13461,-1288,13795,2529,9756,-2121,9346,5281,8921,2466,12945
2017-03-09 18:13:36.522548,-6283,13461,2446,10890,-4715,9756,2978,9346,7119,8921,-7027,12945
2017-03-09 18:13:36.550443,-6283,13461,2446,10890,-4715,9756,2978,9346,7119,8921,-7027,12945
2017-03-09 18:13:36.571266,-6283,13461,2446,10890,-4715,9756,2978,9346,7119,8921,-7027,12945
2017-03-09 18:13:36.605504,-6283,13461,2446,10890,-4715,9756,2978,9346,7119,8921,-7027,12945
2017-03-09 18:13:36.632592,-6283,13461,2446,10890,-4715,9756,2978,9346,7119,8921,-7027,12945
2017-03-09 18:13:36.638219,5599,13461,757,10890,-4187,9756,2398,9346,-3827,8921,5490,12945
2017-03-09 18:13:36.653626,5599,13461,757,10890,-4187,9756,2398,9346,-3827,8921,5490,12945
2017-03-09 18:13:36.661019,5599,13461,757,10890,-4187,9756,2398,9346,-3827,8921,5490,12945
2017-03-09 18:13:36.674496,8147,13461,-1365,10890,-3091,9756,4882,9346,1382,8921,-3690,12945
2017-03-09 18:13:36.689916,8147,13461,-1365,10890,-3091,9756,4882,9346,1382,8921,-3690,12945
2017-03-09 18:13:36.701749,8147,13461,-1365,10890,-3091,9756,4882,9346,1382,8921,-3690,12945
2017-03-09 18:13:36.721503,8147,13461,-1365,10890,-3091,9756,4882,9346,1382,8921,-3690,12945
2017-03-09 18:13:36.740370,8147,13461,-1365,10890,-3091,9756,4882,9346,1382,8921,-3690,12945
2017-03-09 18:13:36.755109,8147,13461,-1365,10890,-3091,9756,4882,9346,1382,8921,-3690,12945
2017-03-09 18:13:36.772242,2772,13461,-527,10890,-5064,9756,3705,9346,-2880,8921,5119,12945
2017-03-09 18:13:36.813754,2772,13461,-527,10890,-5064,9756,3705,9346,-2880,8921,5119,12945
2017-03-09 18:13:36.813990,1873,13461,-574,10890,-7895,9756,234,9346,-5361,8921,-6983,12945
2017-03-09 18:13:36.831054,5980,13461,-1735,10890,-2457,9756,-2617,9346,-5578,8921,2315,12945
2017-03-09 18:13:36.836559,5980,13461,-1735,10890,-2457,9756,-2617,9346,-5578,8921,2315,12945
2017-03-09 18:13:36.851299,5980,13461,-1735,10890,-2457,9756,-2617,9346,-5578,8921,2315,12945
2017-03-09 18:13:36.869900,5980,13461,-1735,10890,-2457,9756,-2617,9346,-5578,8921,2315,12945
2017-03-09 18:13:36.905000,-5198,13461,5858,10890,5814,9756,4391,9346,4649,8921,-4904,12945
2017-03-09 18:13:36.913665,-5198,13461,5858,10890,5814,9756,4391,9346,4649,8921,-4904,12945
2017-03-09 18:13:36.925027,1121,13461,-1478,10890,5457,9756,5602,9346,-3694,8921,2858,12945
2017-03-09 18:13:36.933894,1121,13461,-1478,10890,5457,9756,5602,9346,-3694,8921,2858,12945
2017-03-09 18:13:36.943228,7302,13461,-4238,10890,-8139,9756,4824,9346,-1740,8921,-3946,12945
2017-03-09 18:13:36.953628,-931,13461,-5946,10890,-481,12311,5015,9346,-4307,8921,38,12945
2017-03-09 18:13:36.957565,-931,13461,-5946,10890,-481,12311,5015,9346,-4307,8921,38,12945
2017-03-09 18:13:36.979116,-931,13461,-5946,10890,-481,12311,5015,9346,-4307,8921,38,12945
2017-03-09 18:13:36.993518,-931,13461,-5946,10890,-481,12311,5015,9346,-4307,8921,38,12945
2017-03-09 18:13:37.001900,4571,4790,-7510,10890,-6060,12311,-3532,9346,764,8921,-4620,5308
2017-03-09 18:13:37.017372,4571,4790,-7510,10890,-6060,12311,-3532,9346,764,8921,-4620,5308
2017-03-09 18:13:37.030408,4571,4790,-7510,10890,-6060,12311,-3532,9346,764,8921,-4620,5308
2017-03-09 18:13:37.057244,4571,4790,-7510,10890,-6060,12311,-3532,9346,764,8921,-4620,5308
2017-03-09 18:13:37.071038,4571,4790,-7510,10890,-6060,12311,-3532,9346,764,8921,-4620,5308
2017-03-09 18:13:37.072165,-7740,4790,-1231,10890,-3758,12311,265,9346,7065,8921,-4855,5308
2017-03-09 18:13:37.114805,-7740,4790,-1231,10890,-3758,12311,265,9346,7065,8921,-4855,5308
2017-03-09 18:13:37.115095,-7740,4790,-1231,10890,-3758,12311,265,9346,7065,8921,-4855,5308
2017-03-09 18:13:37.132145,-7740,4790,-1231,10890,-3758,12311,265,9346,7065,8921,-4855,5308
2017-03-09 18:13:37.146936,-7740,4790,-1231,10890,-3758,12311,265,9346,7065,8921,-4855,5308
2017-03-09 18:13:37.156430,-7740,4790,-1231,10890,-3758,12311,265,9346,7065,8921,-4855,5308
2017-03-09 18:13:37.167661,-2879,4790,-1153,10890,-7122,12311,-718,9346,-2666,8921,-3550,5308
2017-03-09 18:13:37.175563,-2879,4790,-1153,10890,-7122,12311,-718,9346,-2666,8921,-3550,5308
2017-03-09 18:13:37.196385,-2879,4790,-1153,10890,-7122,12311,-718,9346,-2666,8921,-3550,5308
2017-03-09 18:13:37.222355,-2879,4790,-1153,10890,-7122,12311,-718,9346,-2666,8921,-3550,5308
2017-03-09 18:13:37.267794,-2879,4790,-1153,10890,-7122,12311,-718,9346,-2666,8921,-3550,5308
2017-03-09 18:13:37.268637,-2879,4790,-1153,10890,-7122,12311,-718,9346,-2666,8921,-3550,5308
2017-03-09 18:13:37.272984,4752,4790,6497,10890,-7690,12311,-563,9346,-7305,8921,5519,5308
2017-03-09 18:13:37.280660,4752,4790,6497,10890,-7690,12311,-563,9346,-7305,8921,5519,5308
2017-03-09 18:13:37.287046,-1429,4790,-1755,10890,-3395,12311,-7970,654,4383,8921,-1855,5308
2017-03-09 18:13:37.298231,-1429,4790,-1755,10890,-3395,12311,-7970,654,4383,8921,-1855,5308
2017-03-09 18:13:37.310039,-1429,4790,-1755,10890,-3395,12311,-7970,654,4383,8921,-1855,5308
2017-03-09 18:13:37.330226,-4260,4790,-5392,10890,-3395,12311,-4539,654,-6076,8921,-6691,5308
2017-03-09 18:13:37.330745,113,4790,-7375,10890,6108,12311,7267,654,3053,8921,5039,5308
2017-03-09 18:13:37.343300,113,4790,-7375,10890,6108,12311,7267,654,3053,8921,5039,5308
2017-03-09 18:13:37.356696,113,4790,-7375,10890,6108,12311,7267,654,3053,8921,5039,5308
2017-03-09 18:13:37.378863,113,4790,-7375,10890,6108,12311,7267,654,3053,8921,5039,5308
2017-03-09 18:13:37.383816,113,4790,-7375,10890,6108,12311,7267,654,3053,8921,5039,5308
2017-03-09 18:13:37.406417,-5926,4790,5236,10890,4773,12311,-2922,654,-6797,8921,-6854,5308
2017-03-09 18:13:37.412931,-5926,4790,5236,10890,4773,12311,-2922,654,-6797,8921,-6854,5308
2017-03-09 18:13:37.430114,-5926,4790,5236,10890,4773,12311,-2922,654,-6797,8921,-6854,5308
2017-03-09 18:13:37.430267,-5926,4790,5236,10890,4773,12311,-2922,654,-6797,8921,-6854,5308
2017-03-09 18:13:37.453551,-5926,4790,5236,10890,4773,12311,-2922,654,-6797,8921,-6854,5308
2017-03-09 18:13:37.496065,7255,4790,7990,10890,-7236,12311,-2293,654,-2541,8921,1431,5308
2017-03-09 18:13:37.512314,7255,4790,7990,10890,-7236,12311,-2293,654,-2541,8921,1431,5308
2017-03-09 18:13:37.537090,7255,4790,7990,10890,-7236,12311,-2293,654,-2541,8921,1431,5308
2017-03-09 18:13:37.573984,7255,4790,7990,10890,-7236,12311,-2293,654,-2541,8921,1431,5308
2017-03-09 18:13:37.625275,7255,4790,7990,10890,-7236,12311,-2293,654,-2541,8921,1431,5308
2017-03-09 18:13:37.626945,7255,4790,7990,10890,-7236,12311,-2293,654,-2541,8921,1431,5308
2017-03-09 18:13:37.640843,-289,4790,-6661,10890,-2898,12311,-4816,654,416,8921,-4791,5308
2017-03-09 18:13:37.654783,-289,4790,-6661,10890,-2898,12311,-4816,654,416,8921,-4791,5308
2017-03-09 18:13:37.657792,-289,4790,-6661,10890,-2898,12311,-4816,654,416,8921,-4791,5308
2017-03-09 18:13:37.700898,-289,4790,-6661,10890,-2898,12311,-4816,654,416,8921,-4791,5308
2017-03-09 18:13:37.700966,-289,4790,-6661,10890,-2898,12311,-4816,654,416,8921,-4791,5308
2017-03-09 18:13:37.701507,-306,4790,-2391,10890,-1835,12311,5650,654,-2599,8921,-2141,5308
2017-03-09 18:13:37.717807,-306,4790,-2391,10890,-1835,12311,5650,654,-2599,8921,-2141,5308
2017-03-09 18:13:37.730330,-306,4790,-2391,10890,-1835,12311,5650,654,-2599,8921,-2141,5308
2017-03-09 18:13:37.746381,-306,4790,-2391,10890,-1835,12311,5650,654,-2599,8921,-2141,5308
2017-03-09 18:13:37.759525,-943,4790,1868,10890,5707,12311,2476,654,3392,8921,6666,5308
2017-03-09 18:13:37.793045,-943,4790,1868,10890,5707,12311,2476,654,3392,8921,6666,5308
2017-03-09 18:13:37.833499,-943,4790,1868,10890,5707,12311,2476,654,3392,8921,6666,5308
2017-03-09 18:13:37.834272,-3883,2615,311,10890,2207,12311,-5650,7007,-1666,8921,-5091,5308
2017-03-09 18:13:37.847464,-3883,2615,311,10890,2207,12311,-5650,7007,-1666,8921,-5091,5308
2017-03-09 18:13:37.853962,-3883,2615,311,10890,2207,12311,-5650,7007,-1666,8921,-5091,5308
2017-03-09 18:13:37.857826,-3883,2615,311,10890,2207,12311,-5650,7007,-1666,8921,-5091,5308
2017-03-09 18:13:37.865663,2556,2615,-897,10890,2786,12311,4833,7007,-5651,8921,-4603,5308
2017-03-09 18:13:37.870098,2556,2615,-897,10890,2786,12311,4833,7007,-5651,8921,-4603,5308
2017-03-09 18:13:37.881615,2556,2615,-897,10890,2786,12311,4833,7007,-5651,8921,-4603,5308
2017-03-09 18:13:37.885482,2556,2615,-897,10890,2786,12311,4833,7007,-5651,8921,-4603,5308
2017-03-09 18:13:37.930091,6763,2615,1764,10890,4099,12311,8156,7007,6604,8921,-4191,5308
2017-03-09 18:13:37.934018,6763,2615,1764,10890,4099,12311,8156,7007,6604,8921,-4191,5308
2017-03-09 18:13:37.948991,6763,2615,1764,10890,4099,12311,8156,7007,6604,8921,-4191,5308
2017-03-09 18:13:37.970702,6763,2615,1764,10890,4099,12311,8156,7007,6604,8921,-4191,5308
2017-03-09 18:13:37.971759,-634,2615,4302,10890,7638,12311,-235,7007,-8014,8921,4750,5308
2017-03-09 18:13:37.976546,-634,2615,4302,10890,7638,12311,-235,7007,-8014,8921,4750,5308
2017-03-09 18:13:37.992221,-634,2615,4302,10890,7638,12311,-235,7007,-8014,8921,4750,5308
2017-03-09 18:13:37.992315,-634,2615,4302,10890,7638,12311,-235,7007,-8014,8921,4750,5308
2017-03-09 18:13:37.998283,-3153,2615,-2699,10890,-6518,12311,2691,7007,3024,8921,-7799,5308
2017-03-09 18:13:38.007612,-3153,2615,-2699,10890,-6518,12311,2691,7007,3024,8921,-7799,5308
2017-03-09 18:13:38.015281,-3153,2615,-2699,10890,-6518,12311,2691,7007,3024,8921,-7799,5308
2017-03-09 18:13:38.030821,-3153,2615,-2699,10890,-6518,12311,2691,7007,3024,8921,-7799,5308
2017-03-09 18:13:38.040236,1773,2615,5193,10890,1804,12311,1693,7007,436,8921,854,2692
2017-03-09 18:13:38.057253,1773,2615,5193,10890,1804,12311,1693,7007,436,8921,854,2692
2017-03-09 18:13:38.057449,1773,2615,5193,10890,1804,12311,1693,7007,436,8921,854,2692
2017-03-09 18:13:38.072947,1773,2615,5193,10890,1804,12311,1693,7007,436,8921,854,2692
2017-03-09 18:13:38.081819,1773,2615,5193,10890,1804,12311,1693,7007,436,8921,854,2692
2017-03-09 18:13:38.087034,1773,2615,5193,10890,1804,12311,1693,7007,436,8921,854,2692
2017-03-09 18:13:38.108005,4918,2615,-1188,10890,-7638,12311,2521,7007,-1061,8921,-5303,2692
2017-03-09 18:13:38.113973,4918,2615,-1188,10890,-7638,12311,2521,7007,-1061,8921,-5303,2692
2017-03-09 18:13:38.134442,4918,2615,-1188,10890,-7638,12311,2521,7007,-1061,8921,-5303,2692
2017-03-09 18:13:38.151669,-7647,2615,-1369,10890,-2214,12311,-1021,7007,2355,8921,8056,10928
2017-03-09 18:13:38.159896,-7647,2615,-1369,10890,-2214,12311,-1021,7007,2355,8921,8056,10928
2017-03-09 18:13:38.166827,-7647,2615,-1369,10890,-2214,12311,-1021,7007,2355,8921,8056,10928
2017-03-09 18:13:38.181796,-7647,2615,-1369,10890,-2214,12311,-1021,7007,2355,8921,8056,10928
2017-03-09 18:13:38.195449,3749,2615,-5187,10890,-4670,12311,4839,7007,-5992,8921,7946,10928
2017-03-09 18:13:38.201264,3749,2615,-5187,10890,-4670,12311,4839,7007,-5992,8921,7946,10928
2017-03-09 18:13:38.215067,3749,2615,-5187,10890,-4670,12311,4839,7007,-5992,8921,7946,10928
2017-03-09 18:13:38.236911,-1111,2615,5886,10890,5711,12311,536,7007,-3453,8921,-1866,10928
2017-03-09 18:13:38.249563,-4750,2615,-2470,10890,298,12311,6198,7007,933,8921,-5727,10928
2017-03-09 18:13:38.256216,-4750,2615,-2470,10890,298,12311,6198,7007,933,8921,-5727,10928
2017-03-09 18:13:38.263731,-4750,2615,-2470,10890,298,12311,6198,7007,933,8921,-5727,10928
2017-03-09 18:13:38.268014,-2802,2615,-1528,10890,3700,12311,-6383,7007,-3212,8921,-5927,10928
2017-03-09 18:13:38.281900,-1691,2615,6264,10890,-2113,12311,-4289,7007,3440,8921,2572,10928
2017-03-09 18:13:38.289355,-1691,2615,6264,10890,-2113,12311,-4289,7007,3440,8921,2572,10928
2017-03-09 18:13:38.298706,-5408,2615,-1646,10890,-1296,12311,-6988,7007,2866,8921,-3678,10928
2017-03-09 18:13:38.306045,-5408,2615,-1646,10890,-1296,12311,-6988,7007,2866,8921,-3678,10928
2017-03-09 18:13:38.318064,-5408,2615,-1646,10890,-1296,12311,-6988,7007,2866,8921,-3678,10928
2017-03-09 18:13:38.336305,-5408,2615,-1646,10890,-1296,12311,-6988,7007,2866,8921,-3678,10928
2017-03-09 18:13:38.349840,-5408,2615,-1646,10890,-1296,12311,-6988,7007,2866,8921,-3678,10928
2017-03-09 18:13:38.352867,685,2615,-3918,10890,6726,12311,-6246,7007,2121,8921,-4818,10928
2017-03-09 18:13:38.361868,685,2615,-3918,10890,6726,12311,-6246,7007,2121,8921,-4818,10928
2017-03-09 18:13:38.374423,685,2615,-3918,10890,6726,12311,-6246,7007,2121,8921,-4818,10928
2017-03-09 18:13:38.383745,685,2615,-3918,10890,6726,12311,-6246,7007,2121,8921,-4818,10928
2017-03-09 18:13:38.392677,685,2615,-3918,10890,6726,12311,-6246,7007,2121,8921,-4818,10928
2017-03-09 18:13:38.399840,685,2615,-3918,10890,6726,12311,-6246,7007,2121,8921,-4818,10928
2017-03-09 18:13:38.415900,7912,2615,2103,10890,7357,12311,-1474,7007,3707,8921,-2719,10928
2017-03-09 18:13:38.424570,7912,2615,2103,10890,7357,12311,-1474,7007,3707,8921,-2719,10928
2017-03-09 18:13:38.450543,6900,2615,-1755,10890,-3986,12311,7855,7007,-2439,8921,-5258,10928
2017-03-09 18:13:38.450717,-1230,2615,-5002,10890,-4537,12311,5313,7007,-2103,8921,-2547,10928
2017-03-09 18:13:38.450915,-1230,2615,-5002,10890,-4537,12311,5313,7007,-2103,8921,-2547,10928
2017-03-09 18:13:38.464916,-1230,2615,-5002,10890,-4537,12311,5313,7007,-2103,8921,-2547,10928
2017-03-09 18:13:38.471475,-1230,2615,-5002,10890,-4537,12311,5313,7007,-2103,8921,-2547,10928
2017-03-09 18:13:38.483061,5940,7734,1854,10890,-7015,12311,2928,7007,-1452,8921,-6291,10928
2017-03-09 18:13:38.488479,5940,7734,1854,10890,-7015,12311,2928,7007,-1452,8921,-6291,10928
2017-03-09 18:13:38.510877,5940,7734,1854,10890,-7015,12311,2928,7007,-1452,8921,-6291,10928
2017-03-09 18:13:38.511293,110,7734,3267,10890,305,12311,426,7007,-2818,8921,-3025,10928
2017-03-09 18:13:38.552523,110,7734,3267,10890,305,12311,426,7007,-2818,8921,-3025,10928
2017-03-09 18:13:38.552623,110,7734,3267,10890,305,12311,426,7007,-2818,8921,-3025,10928
2017-03-09 18:13:38.557421,110,7734,3267,10890,305,12311,426,7007,-2818,8921,-3025,10928
2017-03-09 18:13:38.567176,110,7734,3267,10890,305,12311,426,7007,-2818,8921,-3025,10928
2017-03-09 18:13:38.571758,110,7734,3267,10890,305,12311,426,7007,-2818,8921,-3025,10928
2017-03-09 18:13:38.585937,1245,7734,5623,10890,1685,12311,5807,7007,1005,8921,-3876,10928
2017-03-09 18:13:38.590027,1245,7734,5623,10890,1685,12311,5807,7007,1005,8921,-3876,10928
2017-03-09 18:13:38.600933,1245,7734,5623,10890,1685,12311,5807,7007,1005,8921,-3876,10928
2017-03-09 18:13:38.602497,2956,7734,-4209,10890,-2023,12311,1735,7007,-6543,8921,-4690,10928
2017-03-09 18:13:38.623616,2956,7734,-4209,10890,-2023,12311,1735,7007,-6543,8921,-4690,10928
2017-03-09 18:13:38.629622,1448,7734,-1880,10890,5034,12311,-4765,7007,-7964,8921,-3325,10928
2017-03-09 18:13:38.636967,1448,7734,-1880,10890,5034,12311,-4765,7007,-7964,8921,-3325,10928
2017-03-09 18:13:38.643983,1448,7734,-1880,10890,5034,12311,-4765,7007,-7964,8921,-3325,10928
2017-03-09 18:13:38.659986,1448,7734,-1880,10890,5034,12311,-4765,7007,-7964,8921,-3325,10928
2017-03-09 18:13:38.684136,1448,7734,-1880,10890,5034,12311,-4765,7007,-7964,8921,-3325,10928
2017-03-09 18:13:38.699080,370,7734,-2816,10890,5347,12311,1973,7007,5994,8921,2618,10928
2017-03-09 18:13:38.699310,3101,7734,-3149,10890,6686,12311,673,7007,-7992,8921,-6440,10928
2017-03-09 18:13:38.711085,3101,7734,-3149,10890,6686,12311,673,7007,-7992,8921,-6440,10928
2017-03-09 18:13:38.711671,3101,7734,-3149,10890,6686,12311,673,7007,-7992,8921,-6440,10928
2017-03-09 18:13:38.716682,3101,7734,-3149,10890,6686,12311,673,7007,-7992,8921,-6440,10928
2017-03-09 18:13:38.728934,3101,7734,-3149,10890,6686,12311,673,7007,-7992,8921,-6440,10928
2017-03-09 18:13:38.729527,3101,7734,-3149,10890,6686,12311,673,7007,-7992,8921,-6440,10928
2017-03-09 18:13:38.735935,3101,7734,-3149,10890,6686,12311,673,7007,-7992,8921,-6440,10928
2017-03-09 18:13:38.752067,3101,7734,-3149,10890,6686,12311,673,7007,-7992,8921,-6440,10928
2017-03-09 18:13:38.771186,3101,7734,-3149,10890,6686,12311,673,7007,-7992,8921,-6440,10928
2017-03-09 18:13:38.771368,3101,7734,-3149,10890,6686,12311,673,7007,-7992,8921,-6440,10928
