Timestamp,AF3 Value,AF3 Quality,AF4 Value,AF4 Quality,F3 Value,F3 Quality,F4 Value,F4 Quality,F7 Value,F7 Quality,F8 Value,F8 Quality
2017-03-09 18:14:08.118281,6947,0,669,0,-7049,0,-2978,0,6951,0,-7107,0
2017-03-09 18:14:08.172581,6947,0,669,0,-7049,0,-2978,0,6951,0,-7107,0
2017-03-09 18:14:08.172707,7329,10642,2132,0,5048,0,-7216,0,1722,0,-2399,0
2017-03-09 18:14:08.206701,7329,10642,2132,0,5048,0,-7216,0,1722,0,-2399,0
2017-03-09 18:14:08.207158,7329,10642,2132,0,5048,0,-7216,0,1722,0,-2399,0
2017-03-09 18:14:08.207244,7329,10642,2132,0,5048,0,-7216,0,1722,0,-2399,0
2017-03-09 18:14:08.233637,7329,10642,2132,0,5048,0,-7216,0,1722,0,-2399,0
2017-03-09 18:14:08.233805,7329,10642,2132,0,5048,0,-7216,0,1722,0,-2399,0
2017-03-09 18:14:08.235672,7329,10642,2132,0,5048,0,-7216,0,1722,0,-2399,0
2017-03-09 18:14:08.316635,7329,10642,2132,0,5048,0,-7216,0,1722,0,-2399,0
2017-03-09 18:14:08.316865,6485,10642,3002,0,4134,0,-8186,0,439,0,-6256,0
2017-03-09 18:14:08.335915,6485,10642,3002,0,4134,0,-8186,0,439,0,-6256,0
2017-03-09 18:14:08.335983,6485,10642,3002,0,4134,0,-8186,0,439,0,-6256,0
2017-03-09 18:14:08.336047,6485,10642,3002,0,4134,0,-8186,0,439,0,-6256,0
2017-03-09 18:14:08.336504,-1498,10642,-4827,0,-4302,0,-4230,0,-18,0,5588,0
2017-03-09 18:14:08.336598,-1498,10642,-4827,0,-4302,0,-4230,0,-18,0,5588,0
2017-03-09 18:14:08.336655,-1498,10642,-4827,0,-4302,0,-4230,0,-18,0,5588,0
2017-03-09 18:14:08.336696,-1498,10642,-4827,0,-4302,0,-4230,0,-18,0,5588,0
2017-03-09 18:14:08.336953,7866,10642,4059,0,-1810,0,6466,0,-2008,0,-3691,0
2017-03-09 18:14:08.401873,7866,10642,4059,0,-1810,0,6466,0,-2008,0,-3691,0
2017-03-09 18:14:08.432277,2760,10642,5911,0,5516,0,5837,0,-3728,0,-2280,0
2017-03-09 18:14:08.432324,2760,10642,5911,0,5516,0,5837,0,-3728,0,-2280,0
2017-03-09 18:14:08.432400,5226,10642,-2123,0,2189,0,-2625,0,6297,0,-6636,0
2017-03-09 18:14:08.432440,5226,10642,-2123,0,2189,0,-2625,0,6297,0,-6636,0
2017-03-09 18:14:08.451144,-920,10642,-1843,0,-6558,0,4050,0,-1675,0,-5220,0
2017-03-09 18:14:08.501473,-920,10642,-1843,0,-6558,0,4050,0,-1675,0,-5220,0
2017-03-09 18:14:08.561895,-920,10642,-1843,0,-6558,0,4050,0,-1675,0,-5220,0
2017-03-09 18:14:08.561958,5334,10642,-2406,5428,-7696,0,-7147,0,-2659,0,-892,0
2017-03-09 18:14:08.562029,5334,10642,-2406,5428,-7696,0,-7147,0,-2659,0,-892,0
2017-03-09 18:14:08.562071,5334,10642,-2406,5428,-7696,0,-7147,0,-2659,0,-892,0
2017-03-09 18:14:08.674137,5334,10642,-2406,5428,-7696,0,-7147,0,-2659,0,-892,0
2017-03-09 18:14:08.674238,5334,10642,-2406,5428,-7696,0,-7147,0,-2659,0,-892,0
2017-03-09 18:14:08.674309,5334,10642,-2406,5428,-7696,0,-7147,0,-2659,0,-892,0
2017-03-09 18:14:08.674361,-6313,10642,-6195,5428,1706,0,-6137,0,-4069,0,7390,0
2017-03-09 18:14:08.674399,-6313,10642,-6195,5428,1706,0,-6137,0,-4069,0,7390,0
2017-03-09 18:14:08.674463,-6313,10642,-6195,5428,1706,0,-6137,0,-4069,0,7390,0
2017-03-09 18:14:08.705299,-6313,10642,-6195,5428,1706,0,-6137,0,-4069,0,7390,0
2017-03-09 18:14:08.717535,7723,10642,2727,5428,-155,5051,-8160,0,-6894,0,-2499,0
2017-03-09 18:14:08.736903,7723,10642,2727,5428,-155,5051,-8160,0,-6894,0,-2499,0
2017-03-09 18:14:08.773894,7723,10642,2727,5428,-155,5051,-8160,0,-6894,0,-2499,0
2017-03-09 18:14:08.774119,7723,10642,2727,5428,-155,5051,-8160,0,-6894,0,-2499,0
2017-03-09 18:14:08.809965,7723,10642,2727,5428,-155,5051,-8160,0,-6894,0,-2499,0
2017-03-09 18:14:08.810473,-113,10642,-297,5428,-7603,5051,-5824,0,6817,0,4275,0
2017-03-09 18:14:08.854147,-113,10642,-297,5428,-7603,5051,-5824,0,6817,0,4275,0
2017-03-09 18:14:08.891005,-113,10642,-297,5428,-7603,5051,-5824,0,6817,0,4275,0
2017-03-09 18:14:08.891256,-113,10642,-297,5428,-7603,5051,-5824,0,6817,0,4275,0
2017-03-09 18:14:08.891535,-2200,8972,-5942,5428,-7164,5051,-5489,0,4079,0,5488,0
2017-03-09 18:14:08.938587,-2200,8972,-5942,5428,-7164,5051,-5489,0,4079,0,5488,0
2017-03-09 18:14:08.962504,-2200,8972,-5942,5428,-7164,5051,-5489,0,4079,0,5488,0
2017-03-09 18:14:08.962719,5786,8972,6051,5428,-7937,5051,6271,0,-5583,0,3507,0
2017-03-09 18:14:08.989892,5786,8972,6051,5428,-7937,5051,6271,0,-5583,0,3507,0
2017-03-09 18:14:09.023110,3441,8972,5554,5428,-5469,5051,5688,0,-5498,0,-3861,0
2017-03-09 18:14:09.023443,3441,8972,5554,5428,-5469,5051,5688,0,-5498,0,-3861,0
2017-03-09 18:14:09.023734,-3458,8972,563,5428,-5272,5051,-7073,0,-6776,0,3671,0
2017-03-09 18:14:09.053023,-3458,8972,563,5428,-5272,5051,-7073,0,-6776,0,3671,0
2017-03-09 18:14:09.090519,3505,8972,6826,5428,6070,5051,3798,0,-6704,0,6245,0
2017-03-09 18:14:09.091017,3505,8972,6826,5428,6070,5051,3798,0,-6704,0,6245,0
2017-03-09 18:14:09.131767,3505,8972,6826,5428,6070,5051,3798,0,-6704,0,6245,0
2017-03-09 18:14:09.132265,3505,8972,6826,5428,6070,5051,3798,0,-6704,0,6245,0
2017-03-09 18:14:09.132435,-6109,8972,3648,5428,-2725,5051,1779,0,2583,0,2231,0
2017-03-09 18:14:09.156413,-6109,8972,3648,5428,-2725,5051,1779,0,2583,0,2231,0
2017-03-09 18:14:09.233757,-6109,8972,3648,5428,-2725,5051,1779,0,2583,0,2231,0
2017-03-09 18:14:09.233945,-6109,8972,3648,5428,-2725,5051,1779,0,2583,0,2231,0
2017-03-09 18:14:09.265558,-2675,8972,5555,5428,3237,5051,288,0,5022,0,6627,0
2017-03-09 18:14:09.292604,-2675,8972,5555,5428,3237,5051,288,0,5022,0,6627,0
2017-03-09 18:14:09.296987,-2675,8972,5555,5428,3237,5051,288,0,5022,0,6627,0
2017-03-09 18:14:09.313270,-7386,8972,1012,5428,-1448,5051,-6163,0,5982,0,7833,0
2017-03-09 18:14:09.341950,-7386,8972,1012,5428,-1448,5051,-6163,0,5982,0,7833,0
2017-03-09 18:14:09.358082,-7386,8972,1012,5428,-1448,5051,-6163,0,5982,0,7833,0
2017-03-09 18:14:09.383149,-2819,8972,3822,5428,-6168,5051,-4299,0,-3657,0,4422,0
2017-03-09 18:14:09.426808,-2819,8972,3822,5428,-6168,5051,-4299,0,-3657,0,4422,0
2017-03-09 18:14:09.427110,-4918,8972,-4161,5428,3491,5051,-800,0,-4834,0,-1983,0
2017-03-09 18:14:09.455661,-4918,8972,-4161,5428,3491,5051,-800,0,-4834,0,-1983,0
2017-03-09 18:14:09.463191,-4918,8972,-4161,5428,3491,5051,-800,0,-4834,0,-1983,0
2017-03-09 18:14:09.506247,183,8972,-2478,5428,-4143,5051,6413,0,407,0,4097,0
2017-03-09 18:14:09.506460,183,8972,-2478,5428,-4143,5051,6413,0,407,0,4097,0
2017-03-09 18:14:09.506658,183,8972,-2478,5428,-4143,5051,6413,0,407,0,4097,0
2017-03-09 18:14:09.506821,2699,8972,7145,5428,6428,5051,-7568,0,440,0,7687,0
2017-03-09 18:14:09.563773,-3838,8972,5957,4757,289,5051,-2733,0,-1746,0,-2681,0
2017-03-09 18:14:09.564322,-3838,8972,5957,4757,289,5051,-2733,0,-1746,0,-2681,0
2017-03-09 18:14:09.564513,-3838,8972,5957,4757,289,5051,-2733,0,-1746,0,-2681,0
2017-03-09 18:14:09.593121,3038,14779,-133,4757,-7873,5051,-8034,0,-4498,0,6768,0
2017-03-09 18:14:09.637501,3038,14779,-133,4757,-7873,5051,-8034,0,-4498,0,6768,0
2017-03-09 18:14:09.637741,3038,14779,-133,4757,-7873,5051,-8034,0,-4498,0,6768,0
2017-03-09 18:14:09.637897,3038,14779,-133,4757,-7873,5051,-8034,0,-4498,0,6768,0
2017-03-09 18:14:09.658052,7104,14779,6441,4757,6348,5051,3063,0,-5064,0,-1524,0
2017-03-09 18:14:09.676396,7104,14779,6441,4757,6348,5051,3063,0,-5064,0,-1524,0
2017-03-09 18:14:09.720818,-2858,14779,6447,4757,6348,5051,3063,0,6435,0,-7271,0
2017-03-09 18:14:09.768328,-5642,14779,792,4757,6082,5051,-5432,0,5534,0,-1073,2467
2017-03-09 18:14:09.806769,-5642,14779,792,4757,6082,5051,-5432,0,5534,0,-1073,2467
2017-03-09 18:14:09.807011,-5642,14779,792,4757,6082,5051,-5432,0,5534,0,-1073,2467
2017-03-09 18:14:09.890618,-7125,14779,5938,4757,6992,5051,4123,0,7133,0,-1930,2467
2017-03-09 18:14:09.890983,-5534,14779,-5060,4757,-2543,5051,-7778,0,-7490,0,5618,2467
2017-03-09 18:14:09.891138,6961,14779,-4762,4757,-2231,5051,-1209,0,1988,0,524,2467
2017-03-09 18:14:09.912997,6961,14779,-4762,4757,-2231,5051,-1209,0,1988,0,524,2467
2017-03-09 18:14:09.923344,3687,1477,6375,4757,-2329,5051,-805,0,-418,0,677,2467
2017-03-09 18:14:09.943431,3687,1477,6375,4757,-2329,5051,-805,0,-418,0,677,2467
2017-03-09 18:14:09.967923,3687,1477,6375,4757,-2329,5051,-805,0,-418,0,677,2467
2017-03-09 18:14:09.990656,3687,1477,6375,4757,-2329,5051,-805,0,-418,0,677,2467
2017-03-09 18:14:09.990888,4000,1477,6412,4757,-1961,5051,-6825,0,-6406,0,-3548,2467
2017-03-09 18:14:10.012215,4000,1477,6412,4757,-1961,5051,-6825,0,-6406,0,-3548,2467
2017-03-09 18:14:10.042773,4000,1477,6412,4757,-1961,5051,-6825,0,-6406,0,-3548,2467
2017-03-09 18:14:10.042975,4000,1477,6412,4757,-1961,5051,-6825,0,-6406,0,-3548,2467
2017-03-09 18:14:10.056259,4000,1477,6412,4757,-1961,5051,-6825,0,-6406,0,-3548,2467
2017-03-09 18:14:10.096066,-1145,1477,6761,4757,5670,5051,7830,0,-5128,0,4282,2467
2017-03-09 18:14:10.113978,-1145,1477,6761,4757,5670,5051,7830,0,-5128,0,4282,2467
2017-03-09 18:14:10.113981,-375,1477,6761,4757,5670,5051,7830,0,-5128,0,4282,2467
2017-03-09 18:14:10.127167,-1036,1477,-7778,4757,2505,5051,4669,0,-5680,0,470,2467
2017-03-09 18:14:10.133622,-1036,1477,-7778,4757,2505,5051,4669,0,-5680,0,470,2467
2017-03-09 18:14:10.157993,-1036,1477,-7778,4757,2505,5051,4669,0,-5680,0,470,2467
2017-03-09 18:14:10.179096,5201,1477,400,4757,-5137,5051,3146,0,2595,0,-6266,2467
2017-03-09 18:14:10.201908,5201,1477,400,4757,-5137,5051,3146,0,2595,0,-6266,2467
2017-03-09 18:14:10.202263,7577,1477,744,4757,-7631,5051,-5504,0,-5008,0,-6444,2467
2017-03-09 18:14:10.246584,7577,1477,744,4757,-7631,5051,-5504,0,-5008,0,-6444,2467
2017-03-09 18:14:10.255379,7577,1477,744,4757,-7631,5051,-5504,0,-5008,0,-6444,2467
2017-03-09 18:14:10.296920,7577,1477,744,4757,-7631,5051,-5504,0,-5008,0,-6444,2467
2017-03-09 18:14:10.306460,7577,1477,744,4757,-7631,5051,-5504,0,-5008,0,-6444,2467
2017-03-09 18:14:10.306672,7577,1477,744,4757,-7631,5051,-5504,0,-5008,0,-6444,2467
2017-03-09 18:14:10.325191,-2321,1477,-5871,4757,-4897,5051,6999,0,2533,0,4344,2467
2017-03-09 18:14:10.393727,-6651,1477,1854,4757,-583,5051,2928,0,4938,0,-6291,2467
2017-03-09 18:14:10.393944,-6651,1477,1854,4757,-583,5051,2928,0,4938,0,-6291,2467
2017-03-09 18:14:10.393979,-6651,1477,1854,4757,-583,5051,2928,0,4938,0,-6291,2467
2017-03-09 18:14:10.399516,-7087,1477,7318,4757,-6637,5051,910,0,2528,0,-4019,2467
2017-03-09 18:14:10.399570,1031,1477,7570,4757,-843,5051,-3948,0,959,0,-8037,2467
2017-03-09 18:14:10.469089,1031,1477,7570,4757,-843,5051,-3948,0,959,0,-8037,2467
2017-03-09 18:14:10.469288,-6090,1477,-5301,4757,-3499,5051,-2952,0,5722,0,7594,2467
2017-03-09 18:14:10.469485,-6090,1477,-5301,4757,-3499,5051,-2952,0,5722,0,7594,2467
2017-03-09 18:14:10.498725,-6090,1477,-5301,4757,-3499,5051,-2952,0,5722,0,7594,2467
2017-03-09 18:14:10.498887,-6639,1477,-1954,4757,-4251,5051,76,0,3718,0,1832,2467
2017-03-09 18:14:10.498955,-6639,1477,-1954,4757,-4251,5051,76,0,3718,0,1832,2467
2017-03-09 18:14:10.549355,-6639,1477,-1954,4757,-4251,5051,76,0,3718,0,1832,2467
2017-03-09 18:14:10.549572,-6639,1477,-1954,4757,-4251,5051,76,0,3718,0,1832,2467
2017-03-09 18:14:10.549709,-6639,1477,-1954,4757,-4251,5051,76,0,3718,0,1832,2467
2017-03-09 18:14:10.579200,-6639,1477,-1954,4757,-4251,5051,76,0,3718,0,1832,2467
2017-03-09 18:14:10.615045,-6497,1477,7536,4757,3657,5051,-1813,0,5822,0,7302,2467
2017-03-09 18:14:10.615346,-6497,1477,7536,4757,3657,5051,-1813,0,5822,0,7302,2467
2017-03-09 18:14:10.615493,-6497,1477,7536,4757,3657,5051,-1813,0,5822,0,7302,2467
2017-03-09 18:14:10.615532,-1760,1477,-4009,4757,6054,5051,6344,0,-2142,0,-5206,2467
2017-03-09 18:14:10.615593,-1760,1477,-4009,4757,6054,5051,6344,0,-2142,0,-5206,2467
2017-03-09 18:14:10.649784,-8163,1477,-7050,4757,-2711,5051,5138,0,-4697,0,2370,2467
2017-03-09 18:14:10.650183,-8163,1477,-7050,4757,-2711,5051,5138,0,-4697,0,2370,2467
2017-03-09 18:14:10.678293,1510,1477,7106,4757,2943,5051,-3573,0,6933,0,-943,2467
2017-03-09 18:14:10.683420,1510,1477,7106,4757,2943,5051,-3573,0,6933,0,-943,2467
2017-03-09 18:14:10.709142,1510,1477,7106,4757,2943,5051,-3573,0,6933,0,-943,2467
2017-03-09 18:14:10.709352,1510,1477,7106,4757,2943,5051,-3573,0,6933,0,-943,2467
2017-03-09 18:14:10.709510,1510,1477,7106,4757,2943,5051,-3573,0,6933,0,-943,2467
2017-03-09 18:14:10.743127,-1554,1477,-6790,4757,-6479,5051,4681,0,4757,0,570,2467
2017-03-09 18:14:10.769070,-1554,1477,-6790,4757,-6479,5051,4681,0,4757,0,570,2467
2017-03-09 18:14:10.769251,-1554,1477,-6790,4757,-6479,5051,4681,0,4757,0,570,2467
2017-03-09 18:14:10.790523,-7749,1477,2103,4757,-1749,5051,-1474,0,-2743,0,-2719,2467
2017-03-09 18:14:10.790556,-7749,1477,2103,4757,-1749,5051,-1474,0,-2743,0,-2719,2467
2017-03-09 18:14:10.813238,-7749,1477,2103,4757,-1749,5051,-1474,0,-2743,0,-2719,2467
2017-03-09 18:14:10.823733,3725,1477,3535,4757,-2631,5051,-3224,378,-2800,0,-1174,2467
2017-03-09 18:14:10.824216,3725,1477,3535,4757,-2631,5051,-3224,378,-2800,0,-1174,2467
2017-03-09 18:14:10.864534,3725,1477,3535,4757,-2631,5051,-3224,378,-2800,0,-1174,2467
2017-03-09 18:14:10.867943,-3437,1477,-6594,4757,3805,5051,5740,378,-7026,0,6979,2467
2017-03-09 18:14:10.896821,5723,1477,-4618,4757,-5530,5051,4048,378,4883,0,-4287,2467
2017-03-09 18:14:10.912022,5723,1477,-4618,4757,-5530,5051,4048,378,4883,0,-4287,2467
2017-03-09 18:14:10.923778,2167,1477,-7272,4757,-5530,5051,-1337,378,-4553,0,-2045,2467
2017-03-09 18:14:10.946958,-4273,1477,5045,4757,-3953,5051,2133,378,-63,0,5885,2467
2017-03-09 18:14:10.947170,-4273,1477,5045,4757,-3953,5051,2133,378,-63,0,5885,2467
2017-03-09 18:14:10.962637,-4273,1477,5045,4757,-3953,5051,2133,378,-63,0,5885,2467
2017-03-09 18:14:10.991075,-4273,1477,5045,4757,-3953,5051,2133,378,-63,0,5885,2467
2017-03-09 18:14:11.016664,-294,1477,-1185,4757,-1429,5051,-7396,378,3176,0,-5453,2467
2017-03-09 18:14:11.046123,-294,1477,-1185,4757,-1429,5051,-7396,378,3176,0,-5453,2467
2017-03-09 18:14:11.046353,-2071,1477,4919,4757,-7004,5051,-6689,378,3265,0,4735,2467
2017-03-09 18:14:11.078690,-5427,1477,-1018,4757,3199,5051,4860,378,-105,0,3764,2467
2017-03-09 18:14:11.078874,-6665,1477,-3236,4757,-3256,5051,7725,378,5675,0,-256,2467
2017-03-09 18:14:11.090342,-6665,1477,-3236,4757,-3256,5051,7725,378,5675,0,-256,2467
2017-03-09 18:14:11.121576,-6665,1477,-3236,4757,-3256,5051,7725,378,5675,0,-256,2467
2017-03-09 18:14:11.121790,-1244,1477,-2887,4757,4825,5051,-7448,378,6430,0,-8015,2467
2017-03-09 18:14:11.149671,-1244,1477,-2887,4757,4825,5051,-7448,378,6430,0,-8015,2467
2017-03-09 18:14:11.153958,-4417,1477,-4771,4757,4825,5051,-7448,378,6430,0,6156,2467
2017-03-09 18:14:11.165564,-7182,1477,6851,4757,-1170,5051,1780,378,-5853,0,-4761,2467
2017-03-09 18:14:11.193782,-4527,1477,4702,4757,5757,5051,5140,378,-5831,0,-3354,2467
2017-03-09 18:14:11.194239,7266,1477,1864,4757,-1806,5051,-4440,378,-347,0,2321,2467
2017-03-09 18:14:11.212483,7266,1477,1864,4757,-1806,5051,-4440,378,-347,0,2321,2467
2017-03-09 18:14:11.222803,7991,1477,6591,4757,-3711,5051,7315,378,-5231,0,4793,2467
2017-03-09 18:14:11.246447,7991,1477,6591,4757,-3711,5051,7315,378,-5231,0,4793,2467
2017-03-09 18:14:11.279539,7991,1477,6591,4757,-3711,5051,7315,378,-5231,0,4793,2467
2017-03-09 18:14:11.302924,566,1477,6805,4757,-5957,5051,-7146,378,2155,0,7052,2467
2017-03-09 18:14:11.303244,566,1477,6805,4757,-5957,5051,-7146,378,2155,0,7052,2467
2017-03-09 18:14:11.303382,566,1477,6805,4757,-5957,5051,-7146,378,2155,0,7052,2467
2017-03-09 18:14:11.334183,566,1477,6805,4757,-5957,5051,-7146,378,2155,0,7052,2467
2017-03-09 18:14:11.353757,-2410,1477,-5944,4757,2065,5051,-2819,378,-5005,0,-7336,2467
2017-03-09 18:14:11.385732,-2410,1477,-5944,4757,2065,5051,-2819,378,-5005,0,-7336,2467
2017-03-09 18:14:11.385933,-2410,1477,-5944,4757,2065,5051,-2819,378,-5005,0,-7336,2467
2017-03-09 18:14:11.420257,-2410,1477,-5944,4757,2065,5051,-2819,378,-5005,0,-7336,2467
2017-03-09 18:14:11.421485,-2410,1477,-5944,4757,2065,5051,-2819,378,-5005,0,-7336,2467
2017-03-09 18:14:11.455521,-2410,1477,-5944,4757,2065,5051,-2819,378,-5005,0,-7336,2467
2017-03-09 18:14:11.458418,-4621,1477,-4303,4757,271,5051,6683,378,6637,0,2875,2467
2017-03-09 18:14:11.475270,6725,1477,3760,4757,4739,5051,4980,378,647,0,3377,2467
2017-03-09 18:14:11.475468,2265,1477,-5223,4757,-3249,5051,3459,378,6684,0,1975,2467
2017-03-09 18:14:11.499492,2265,1477,-5223,4757,-3249,5051,3459,378,6684,0,1975,2467
2017-03-09 18:14:11.499710,2265,1477,-5223,4757,-3249,5051,3459,378,6684,0,1975,2467
2017-03-09 18:14:11.515452,2265,1477,-5223,4757,-3249,5051,3459,378,6684,0,1975,2467
2017-03-09 18:14:11.543680,2265,1477,-5223,4757,-3249,5051,3459,378,6684,0,1975,2467
2017-03-09 18:14:11.544999,2265,1477,-5223,4757,-3249,5051,3459,378,6684,0,1975,2467
2017-03-09 18:14:11.597659,2265,1477,-5223,4757,-3249,5051,3459,378,6684,0,1975,2467
2017-03-09 18:14:11.629741,2265,1477,-5223,4757,-3249,5051,3459,378,6684,0,1975,2467
2017-03-09 18:14:11.630470,-6003,1477,1162,4757,7709,5051,-6643,378,5503,0,-2140,2467
2017-03-09 18:14:11.666613,-6003,1477,1162,4757,7709,5051,-6643,378,5503,0,-2140,2467
2017-03-09 18:14:11.685853,2111,1477,-7180,4757,-4462,5051,-6244,378,-2988,0,6956,2467
2017-03-09 18:14:11.701706,2111,1477,-7180,4757,-4462,5051,-6244,378,-2988,0,6956,2467
2017-03-09 18:14:11.701914,-6828,1477,-6840,4757,-6316,5051,-3863,378,3808,0,-1435,2467
2017-03-09 18:14:11.730706,-6828,1477,-6840,4757,-6316,5051,-3863,378,3808,0,-1435,2467
2017-03-09 18:14:11.730878,-6828,1477,-6840,4757,-6316,5051,-3863,378,3808,0,-1435,2467
2017-03-09 18:14:11.784562,-5446,1477,-1910,4757,-1568,5051,207,378,3168,0,3472,2467
2017-03-09 18:14:11.784861,4170,1477,-2875,4757,6741,5051,3871,378,6998,0,-7081,2467
2017-03-09 18:14:11.784883,4170,1477,-2875,4757,6741,5051,3871,378,6998,0,-7081,2467
2017-03-09 18:14:11.803737,4170,1477,-2875,4757,6741,5051,3871,378,6998,0,-7081,2467
2017-03-09 18:14:11.828990,966,1477,6067,4757,-2023,5051,1710,378,3581,0,1561,2467
2017-03-09 18:14:11.829355,966,1477,6067,4757,-2023,5051,1710,378,3581,0,1561,2467
2017-03-09 18:14:11.869565,966,1477,6067,4757,-2023,5051,1710,378,3581,0,1561,2467
2017-03-09 18:14:11.869677,966,1477,6067,4757,-2023,5051,1710,378,3581,0,1561,2467
2017-03-09 18:14:11.870880,966,1477,6067,4757,-2023,5051,1710,378,3581,0,1561,2467
2017-03-09 18:14:11.894388,966,1477,6067,4757,-2023,5051,1710,378,3581,0,1561,2467
2017-03-09 18:14:11.894459,-656,1477,-7144,8901,-5144,5051,3337,378,-569,0,4729,2467
2017-03-09 18:14:11.917412,-656,1477,-7144,8901,-5144,5051,3337,378,-569,0,4729,2467
2017-03-09 18:14:11.934852,-656,1477,-7144,8901,-5144,5051,3337,378,-569,0,4729,2467
2017-03-09 18:14:11.955104,-656,1477,-7144,8901,-5144,5051,3337,378,-569,0,4729,2467
2017-03-09 18:14:11.974065,-656,1477,-7144,8901,-5144,5051,3337,378,-569,0,4729,2467
2017-03-09 18:14:11.985314,-656,1477,-7144,8901,-5144,5051,3337,378,-569,0,4729,2467
2017-03-09 18:14:12.011872,-656,1477,-7144,8901,-5144,5051,3337,378,-569,0,4729,2467
2017-03-09 18:14:12.025406,6552,1477,-5138,8901,-4536,5051,-2031,378,-1253,0,-2023,2467
2017-03-09 18:14:12.055550,6552,1477,-5138,8901,-4536,5051,-2031,378,-1253,0,-2023,2467
2017-03-09 18:14:12.057204,-4845,1477,1878,8901,-5723,5051,4390,378,-2707,0,-7873,2467
2017-03-09 18:14:12.091088,-4845,1477,1878,8901,-5723,5051,4390,378,-2707,0,-7873,2467
2017-03-09 18:14:12.091324,-4845,1477,1878,8901,-5723,5051,4390,378,-2707,0,-7873,2467
2017-03-09 18:14:12.091496,-4845,1477,1878,8901,-5723,5051,4390,378,-2707,0,-7873,2467
2017-03-09 18:14:12.121870,4854,1477,270,8901,-5723,5051,4390,378,-2707,0,-7873,2467
2017-03-09 18:14:12.124944,-4816,1477,4186,8901,6899,5051,-4836,378,4192,0,-5773,2467
2017-03-09 18:14:12.157745,-4816,1477,4186,8901,6899,5051,-4836,378,4192,0,-5773,2467
2017-03-09 18:14:12.174545,-4816,1477,4186,8901,6899,5051,-4836,378,4192,0,-5773,2467
2017-03-09 18:14:12.174628,-3469,1477,3821,8901,-2036,5051,-942,378,-7516,0,7761,2467
2017-03-09 18:14:12.174669,-3469,1477,3821,8901,-2036,5051,-942,378,-7516,0,7761,2467
2017-03-09 18:14:12.202218,-3469,1477,3821,8901,-2036,5051,-942,378,-7516,0,7761,2467
2017-03-09 18:14:12.202422,-3469,1477,3821,8901,-2036,5051,-942,378,-7516,0,7761,2467
2017-03-09 18:14:12.202430,-3469,1477,3821,8901,-2036,5051,-942,378,-7516,0,7761,2467
2017-03-09 18:14:12.218623,-5225,1477,-4612,8901,-2570,5051,-6603,378,-2906,0,2749,2467
2017-03-09 18:14:12.249346,-4631,1477,-2261,8901,-244,5051,3138,378,-7868,0,5663,2467
2017-03-09 18:14:12.250247,-4631,1477,-2261,8901,-244,5051,3138,378,-7868,0,5663,2467
2017-03-09 18:14:12.260968,-4631,1477,-2261,8901,-244,5051,3138,378,-7868,0,5663,2467
2017-03-09 18:14:12.304919,-3558,1477,3833,8901,6815,5051,-2777,378,3458,0,-3846,2467
2017-03-09 18:14:12.388087,-3558,1477,3833,8901,6815,5051,-2777,378,3458,0,-3846,2467
2017-03-09 18:14:12.388290,-3558,1477,3833,8901,6815,5051,-2777,378,3458,0,-3846,2467
2017-03-09 18:14:12.388460,-1516,1477,7983,8901,-5708,5051,1265,378,-6886,0,-3359,2467
2017-03-09 18:14:12.388613,4449,1477,-5646,8901,4988,5051,-3366,16091,7928,0,4185,2467
2017-03-09 18:14:12.425851,-5227,1477,-71,8901,-2027,5051,-1567,16091,-353,0,4831,2467
2017-03-09 18:14:12.426214,-5227,1477,-71,8901,-2027,5051,-1567,16091,-353,0,4831,2467
2017-03-09 18:14:12.426330,-5227,1477,-71,8901,-2027,5051,-1567,16091,-353,0,4831,2467
2017-03-09 18:14:12.426403,-5227,1477,-71,8901,-2027,5051,-1567,16091,-353,0,4831,2467
2017-03-09 18:14:12.426442,-8069,1477,-5838,8901,583,5051,8170,16091,-5871,0,-7952,2467
2017-03-09 18:14:12.426478,-8069,1477,-5838,8901,583,5051,8170,16091,-5871,0,-7952,2467
2017-03-09 18:14:12.426544,-6081,1477,6377,8901,-1292,5051,3489,16091,-1260,0,-6055,2467
2017-03-09 18:14:12.479815,-6081,1477,6377,8901,-1292,5051,3489,16091,-1260,0,-6055,2467
2017-03-09 18:14:12.480249,-6081,1477,6377,8901,-1292,5051,3489,16091,-1260,0,-6055,2467
2017-03-09 18:14:12.480415,-6040,1477,-5668,8901,-5928,5051,3150,16091,-6983,0,-1899,2467
2017-03-09 18:14:12.507871,2056,1477,-8003,8901,-6103,5051,5346,16091,5854,0,-929,2467
2017-03-09 18:14:12.513779,2056,1477,-8003,8901,-6103,5051,5346,16091,5854,0,-929,2467
2017-03-09 18:14:12.513862,2056,1477,-8003,8901,-6103,5051,5346,16091,5854,0,-929,2467
2017-03-09 18:14:12.538427,-678,1477,1125,8901,4777,5051,4589,16091,517,0,-2383,2467
2017-03-09 18:14:12.579017,-678,1477,1125,8901,4777,5051,4589,16091,517,0,-2383,2467
2017-03-09 18:14:12.579272,-4121,1477,5238,8901,-4774,5051,-1789,16091,-1150,0,333,2467
2017-03-09 18:14:12.579475,7215,1477,-3880,8901,5717,5051,2739,16091,-6777,0,3289,2467
2017-03-09 18:14:12.603526,-1977,1477,-3803,8901,5644,5051,3133,16091,-5163,0,3872,2467
2017-03-09 18:14:12.645523,-1977,1477,-3803,8901,5644,5051,3133,16091,-5163,0,3872,2467
2017-03-09 18:14:12.657638,-1977,1477,-3803,8901,5644,5051,3133,16091,-5163,0,3872,2467
2017-03-09 18:14:12.686764,-1977,1477,-3803,8901,5644,5051,3133,16091,-5163,0,3872,2467
2017-03-09 18:14:12.686988,-1977,1477,-3803,8901,5644,5051,3133,16091,-5163,0,3872,2467
2017-03-09 18:14:12.714721,-4554,1477,-912,8901,2931,5051,-3917,16091,3253,0,-204,2601
2017-03-09 18:14:12.740958,-4554,1477,-912,8901,2931,5051,-3917,16091,3253,0,-204,2601
2017-03-09 18:14:12.752314,-3388,1477,-6349,8901,2610,5051,-4639,16091,-6313,0,-6277,2601
2017-03-09 18:14:12.767713,-7946,1477,-7241,7656,5526,5051,181,6203,-296,0,2956,2601
2017-03-09 18:14:12.793593,-7946,1477,-7241,7656,5526,5051,181,6203,-296,0,2956,2601
2017-03-09 18:14:12.798168,-7946,1477,-7241,7656,5526,5051,181,6203,-296,0,2956,2601
2017-03-09 18:14:12.829437,-7946,1477,-7241,7656,5526,5051,181,6203,-296,0,2956,2601
2017-03-09 18:14:12.840207,5302,1477,1978,7656,-4490,5051,-5813,6203,-2696,0,837,2601
2017-03-09 18:14:12.899880,5302,1477,1978,7656,-4490,5051,-5813,6203,-2696,0,837,2601
2017-03-09 18:14:12.900147,-3769,1477,4027,7656,-6005,5051,1516,6203,3473,0,4420,2601
2017-03-09 18:14:12.900313,-3769,1477,4027,7656,-6005,5051,1516,6203,3473,0,4420,2601
2017-03-09 18:14:12.940538,515,1477,2640,7656,-2625,5051,-1433,6203,5829,0,-6429,2601
2017-03-09 18:14:12.954290,6035,1477,-7601,7656,8001,5051,1624,6203,-1536,0,-7400,2601
2017-03-09 18:14:12.977969,6035,1477,-7601,7656,8001,5051,1624,6203,-1536,0,-7400,2601
2017-03-09 18:14:13.050352,6035,1477,-7601,7656,8001,5051,1624,6203,-1536,0,-7400,2601
2017-03-09 18:14:13.050572,6035,1477,-7601,7656,8001,5051,1624,6203,-1536,0,-7400,2601
2017-03-09 18:14:13.050624,6035,1477,-7601,7656,8001,5051,1624,6203,-1536,0,-7400,2601
2017-03-09 18:14:13.093360,-3053,1477,1343,7656,7082,5051,7761,6203,5354,0,-7655,2601
2017-03-09 18:14:13.093563,-5200,1477,-3657,7656,2347,5051,-153,6203,1677,0,994,2601
2017-03-09 18:14:13.137195,6946,1477,7997,7656,90,5051,3441,6203,8145,0,6264,2601
2017-03-09 18:14:13.148997,6946,1477,7997,7656,90,5051,3441,6203,8145,0,6264,2601
2017-03-09 18:14:13.158258,5046,1477,-6662,7656,-2916,5051,541,6203,-8003,0,-6444,2601
2017-03-09 18:14:13.189593,5046,1477,-6662,7656,-2916,5051,541,6203,-8003,0,-6444,2601
2017-03-09 18:14:13.241996,5046,1477,-6662,7656,-2916,5051,541,6203,-8003,0,-6444,2601
2017-03-09 18:14:13.242073,5046,1477,-6662,7656,-2916,5051,541,6203,-8003,0,-6444,2601
2017-03-09 18:14:13.303569,5046,1477,-6662,7656,-2916,5051,541,6203,-8003,0,-6444,2601
2017-03-09 18:14:13.303789,5046,1477,-6662,7656,-2916,5051,541,6203,-8003,0,-6444,2601
2017-03-09 18:14:13.303970,5232,1477,-7458,7656,-888,5051,3338,6203,6085,0,-6052,2601
2017-03-09 18:14:13.341730,5232,1477,-7458,7656,-888,5051,3338,6203,6085,0,-6052,2601
2017-03-09 18:14:13.341838,5232,1477,-7458,7656,-888,5051,3338,6203,6085,0,-6052,2601
2017-03-09 18:14:13.341898,314,1477,-1536,7656,-2439,5051,-2953,6203,-6173,0,-843,2601
2017-03-09 18:14:13.369685,314,1477,-1536,7656,-2439,5051,-2953,6203,-6173,0,-843,2601
2017-03-09 18:14:13.369789,314,1477,-1536,7656,-2439,5051,-2953,6203,-6173,0,-843,2601
2017-03-09 18:14:13.391442,-1749,1477,2424,7656,6140,5743,4009,6203,-5000,0,-981,2601
2017-03-09 18:14:13.391667,-1749,1477,2424,7656,6140,5743,4009,6203,-5000,0,-981,2601
2017-03-09 18:14:13.417888,8141,1477,-247,6306,-5876,5743,858,6203,4493,0,2701,2601
2017-03-09 18:14:13.418131,8141,1477,-247,6306,-5876,5743,858,6203,4493,0,2701,2601
2017-03-09 18:14:13.457995,8141,1477,-247,6306,-5876,5743,858,6203,4493,0,2701,2601
2017-03-09 18:14:13.472683,-3358,1477,2255,6306,-4038,5743,-6071,6203,-5579,0,-1720,2601
2017-03-09 18:14:13.481966,-3358,1477,2255,6306,-4038,5743,-6071,6203,-5579,0,-1720,2601
2017-03-09 18:14:13.499368,-3358,1477,2255,6306,-4038,5743,-6071,6203,-5579,0,-1720,2601
2017-03-09 18:14:13.516429,3863,1477,-2799,6306,1086,5743,928,6203,-5649,0,4106,2601
2017-03-09 18:14:13.516632,3863,1477,-2799,6306,1086,5743,928,6203,-5649,0,4106,2601
2017-03-09 18:14:13.545006,-314,1477,-1018,6306,4755,5743,-6689,6203,-5340,0,3764,2601
2017-03-09 18:14:13.545184,6096,1477,6026,6306,4245,5743,-2479,6203,928,0,5094,2601
2017-03-09 18:14:13.573652,6294,1477,7234,6306,5211,4752,-3809,6203,-2341,0,-7653,2601
2017-03-09 18:14:13.573871,6294,1477,7234,6306,5211,4752,-3809,6203,-2341,0,-7653,2601
2017-03-09 18:14:13.584070,-2346,1477,-7270,6306,-2341,4752,-8090,6203,-1480,0,-2823,2601
2017-03-09 18:14:13.600393,-2346,1477,-7270,6306,-2341,4752,-8090,6203,-1480,0,-2823,2601
2017-03-09 18:14:13.629007,-1737,1477,-429,10775,5464,4752,-5821,6203,25,0,-6529,2601
2017-03-09 18:14:13.629219,-1737,1477,-429,10775,5464,4752,-5821,6203,25,0,-6529,2601
2017-03-09 18:14:13.646214,-1737,1477,-429,10775,5464,4752,-5821,6203,25,0,-6529,2601
2017-03-09 18:14:13.646409,7955,1477,-6781,10775,185,4752,-834,6203,-8136,0,5635,2601
2017-03-09 18:14:13.659989,7955,1477,-6781,10775,185,4752,-834,6203,-8136,0,5635,2601
2017-03-09 18:14:13.685324,5863,1477,2614,10775,-5076,4752,-5004,6203,4028,0,-2989,2601
2017-03-09 18:14:13.740310,5863,1477,2614,10775,-5076,4752,-5004,6203,4028,0,-2989,2601
2017-03-09 18:14:13.745191,-1590,1477,3415,10775,-4972,4752,-2309,6203,-2936,0,1062,2601
2017-03-09 18:14:13.753561,-1590,1477,3415,10775,-4972,4752,-2309,6203,-2936,0,1062,2601
2017-03-09 18:14:13.793333,-1590,1477,3415,10775,-4972,4752,-2309,6203,-2936,0,1062,2601
2017-03-09 18:14:13.793625,-1590,1477,3415,10775,-4972,4752,-2309,6203,-2936,0,1062,2601
2017-03-09 18:14:13.811830,-5042,1477,3916,10775,1101,4752,-7230,6203,-6638,0,6137,2601
2017-03-09 18:14:13.825950,-5042,1477,3916,10775,1101,4752,-7230,6203,-6638,0,6137,2601
2017-03-09 18:14:13.841884,-3990,1477,2202,10775,755,4752,-1006,6203,-2444,0,-2720,14610
2017-03-09 18:14:13.855127,-3990,1477,2202,10775,755,4752,-1006,6203,-2444,0,-2720,14610
2017-03-09 18:14:13.881834,-3990,1477,2202,10775,755,4752,-1006,6203,-2444,0,-2720,14610
2017-03-09 18:14:13.893973,-3990,1477,2202,10775,755,4752,-1006,6203,-2444,0,-2720,14610
2017-03-09 18:14:13.909637,-3990,1477,2202,10775,755,4752,-1006,6203,-2444,0,-2720,14610
2017-03-09 18:14:13.918364,-3990,1477,2202,10775,755,4752,-1006,6203,-2444,0,-2720,14610
2017-03-09 18:14:13.922751,-3990,1477,2202,10775,755,4752,-1006,6203,-2444,0,-2720,14610
2017-03-09 18:14:13.979050,-3990,1477,2202,10775,755,4752,-1006,6203,-2444,0,-2720,14610
2017-03-09 18:14:13.979219,-3990,1477,2202,10775,755,4752,-1006,6203,-2444,0,-2720,14610
2017-03-09 18:14:13.979333,-3990,1477,2202,10775,755,4752,-1006,6203,-2444,0,-2720,14610
2017-03-09 18:14:14.001335,-3990,1477,2202,10775,755,4752,-1006,6203,-2444,0,-2720,14610
2017-03-09 18:14:14.018132,-3990,1477,2202,10775,755,4752,-1006,6203,-2444,0,-2720,14610
2017-03-09 18:14:14.033403,-3990,1477,2202,10775,755,4752,-1006,6203,-2444,0,-2720,14610
2017-03-09 18:14:14.061751,-3990,1477,2202,10775,755,4752,-1006,6203,-2444,0,-2720,14610
2017-03-09 18:14:14.076259,-3990,1477,2202,10775,755,4752,-1006,6203,-2444,0,-2720,14610
2017-03-09 18:14:14.086314,-3990,1477,2202,10775,755,4752,-1006,6203,-2444,0,-2720,14610
2017-03-09 18:14:14.123703,-5081,1477,-2974,10775,-4541,4752,-5940,6203,5579,0,-1277,14610
2017-03-09 18:14:14.153338,-5081,1477,-2974,10775,-4541,4752,-5940,6203,5579,0,-1277,14610
2017-03-09 18:14:14.153365,142,1477,5042,10775,3539,4752,1630,6203,-3337,0,-2510,14610
2017-03-09 18:14:14.153670,142,1477,5042,10775,3539,4752,1630,6203,-3337,0,-2510,14610
2017-03-09 18:14:14.190721,7333,1477,-4525,10775,6714,4752,306,6203,135,0,8010,14610
2017-03-09 18:14:14.223404,7333,1477,-4525,10775,6714,4752,306,6203,135,0,8010,14610
2017-03-09 18:14:14.255935,-7082,1477,-7791,10775,3487,4752,-994,6203,5076,0,6667,14610
2017-03-09 18:14:14.262335,-7082,1477,-7791,10775,3487,4752,-994,6203,5076,0,6667,14610
2017-03-09 18:14:14.288142,4229,1477,6306,10775,4769,4752,-8090,6203,-1874,0,-4379,14610
2017-03-09 18:14:14.314874,-7985,1477,4479,10775,-1272,4752,6238,6203,546,0,3719,14610
2017-03-09 18:14:14.323852,3884,1477,-5681,10775,6666,4752,3567,6203,-3327,0,3081,14610
2017-03-09 18:14:14.347122,-8169,1477,-1951,10775,-4661,4752,-4090,6203,4022,0,-6977,14610
2017-03-09 18:14:14.347664,4390,1477,-5988,10775,-3614,4752,-5721,6203,-1185,0,6229,14610
2017-03-09 18:14:14.381633,4390,1477,-5988,10775,-3614,4752,-5721,6203,-1185,0,6229,14610
2017-03-09 18:14:14.381795,4390,1477,-5988,10775,-3614,4752,-5721,6203,-1185,0,6229,14610
2017-03-09 18:14:14.381930,4390,1477,-5988,10775,-3614,4752,-5721,6203,-1185,0,6229,14610
2017-03-09 18:14:14.416232,7782,1477,-7995,4605,-5369,4752,-5809,6203,-4779,0,-5333,14610
2017-03-09 18:14:14.421526,7782,1477,-7995,4605,-5369,4752,-5809,6203,-4779,0,-5333,14610
2017-03-09 18:14:14.421727,7782,1477,-7995,4605,-5369,4752,-5809,6203,-4779,0,-5333,14610
2017-03-09 18:14:14.443899,-2834,1477,-4323,4605,6446,4752,1599,3789,-2024,0,-6076,14610
2017-03-09 18:14:14.475987,7244,1477,7306,4605,664,4752,5702,3789,-7107,0,-6287,14610
2017-03-09 18:14:14.476218,7244,1477,7306,4605,664,4752,5702,3789,-7107,0,-6287,14610
2017-03-09 18:14:14.476408,7244,1477,7306,4605,664,4752,5702,3789,-7107,0,-6287,14610
2017-03-09 18:14:14.501405,7244,1477,7306,4605,664,4752,5702,3789,-7107,0,-6287,14610
2017-03-09 18:14:14.508193,7244,1477,7306,4605,664,4752,5702,3789,-7107,0,-6287,14610
2017-03-09 18:14:14.513690,7244,1477,7306,4605,664,4752,5702,3789,-7107,0,-6287,14610
2017-03-09 18:14:14.559961,-288,1477,3756,4605,1994,4752,-2802,3789,-7554,0,-2201,14610
2017-03-09 18:14:14.560333,-7559,1477,204,4605,-6530,4752,4272,3789,2238,0,-5192,14610
2017-03-09 18:14:14.577720,-7559,1477,204,4605,-6530,4752,4272,3789,2238,0,-5192,14610
2017-03-09 18:14:14.598862,-7559,1477,204,4605,-6530,4752,4272,3789,2238,0,-5192,14610
2017-03-09 18:14:14.612159,-5950,1477,-2940,4605,-2993,4752,-6274,3789,4672,0,-6629,14610
2017-03-09 18:14:14.619011,-5950,1477,-2940,4605,-2993,4752,-6274,3789,4672,0,-6629,14610
2017-03-09 18:14:14.635654,-5950,1477,-2940,4605,-2993,4752,-6274,3789,4672,0,-6629,14610
2017-03-09 18:14:14.654004,-2511,1477,5715,4605,6257,4752,4239,3789,-1396,0,-271,14610
2017-03-09 18:14:14.654204,-2511,1477,5715,4605,6257,4752,4239,3789,-1396,0,-271,14610
2017-03-09 18:14:14.680047,256,1477,4241,4605,6952,4752,-476,3789,3251,0,2964,14610
2017-03-09 18:14:14.733120,256,1477,4241,4605,6952,4752,-476,3789,3251,0,2964,14610
2017-03-09 18:14:14.745753,-6190,1477,-3209,4605,-6220,4752,6367,3789,-686,0,-2804,14610
2017-03-09 18:14:14.784230,-4351,8070,-1441,4605,-4493,4752,-7441,3789,4721,0,-315,14610
2017-03-09 18:14:14.784308,-4351,8070,-1441,4605,-4493,4752,-7441,3789,4721,0,-315,14610
2017-03-09 18:14:14.810693,-5307,8070,-6086,4605,-3485,4752,-5977,3789,-6268,0,592,14610
2017-03-09 18:14:14.818418,-5307,8070,-6086,4605,-3485,4752,-5977,3789,-6268,0,592,14610
2017-03-09 18:14:14.857845,6595,8070,5827,4605,4994,4752,5878,3789,6889,0,-530,14610
2017-03-09 18:14:14.858234,6595,8070,5827,4605,4994,4752,5878,3789,6889,0,-530,14610
2017-03-09 18:14:14.878257,-887,8070,2115,4605,6560,4752,4976,3789,6399,0,-2417,14610
2017-03-09 18:14:14.895162,-887,8070,2115,4605,6560,4752,4976,3789,6399,0,-2417,14610
2017-03-09 18:14:14.928952,-5675,8070,-6003,4605,6101,4752,3115,3789,-2146,0,-751,14610
2017-03-09 18:14:14.929162,4109,8070,256,4605,-48,15564,6171,3789,1715,0,5397,14610
2017-03-09 18:14:14.937445,4109,8070,256,4605,-48,15564,6171,3789,1715,0,5397,14610
2017-03-09 18:14:14.978783,4109,8070,256,4605,-48,15564,6171,3789,1715,0,5397,14610
2017-03-09 18:14:14.978919,3936,8070,37,4605,7548,15564,4964,3789,-164,0,7601,14610
2017-03-09 18:14:14.990842,3936,8070,37,4605,7548,15564,4964,3789,-164,0,7601,14610
2017-03-09 18:14:15.017194,-7710,8070,3581,4605,1593,15564,-1775,3789,2664,0,-3031,14610
2017-03-09 18:14:15.027101,2073,8070,3302,4605,1440,15564,-3675,3789,8178,0,3676,14610
2017-03-09 18:14:15.047262,2073,8070,3302,4605,1440,15564,-3675,3789,8178,0,3676,14610
2017-03-09 18:14:15.047757,2073,8070,3302,4605,1440,15564,-3675,3789,8178,0,3676,14610
2017-03-09 18:14:15.072464,2138,8070,-6975,7141,6925,15564,901,3789,-8184,0,2700,14610
2017-03-09 18:14:15.099956,2138,8070,-6975,7141,6925,15564,901,3789,-8184,0,2700,14610
2017-03-09 18:14:15.100298,2138,8070,-6975,7141,6925,15564,901,3789,-8184,0,2700,14610
2017-03-09 18:14:15.127161,-1875,8070,-7055,7141,6354,15564,-5210,3789,-8039,0,-2556,14610
2017-03-09 18:14:15.143563,-4010,8070,-4216,4738,693,5838,-6669,3789,-7262,0,-1901,14610
2017-03-09 18:14:15.163492,-4010,8070,-4216,4738,693,5838,-6669,3789,-7262,0,-1901,14610
2017-03-09 18:14:15.185870,-4010,8070,-4216,4738,693,5838,-6669,3789,-7262,0,-1901,14610
2017-03-09 18:14:15.205694,-4010,8070,-4216,4738,693,5838,-6669,3789,-7262,0,-1901,14610
2017-03-09 18:14:15.259671,-4010,8070,-4216,4738,693,5838,-6669,3789,-7262,0,-1901,14610
2017-03-09 18:14:15.306841,-4010,8070,-4216,4738,693,5838,-6669,3789,-7262,0,-1901,14610
2017-03-09 18:14:15.306998,-4010,8070,-4216,4738,693,5838,-6669,3789,-7262,0,-1901,14610
2017-03-09 18:14:15.347662,-4010,8070,-4216,4738,693,5838,-6669,3789,-7262,0,-1901,14610
2017-03-09 18:14:15.347835,7405,8070,-2390,13028,-1365,5838,-3196,3789,317,0,-2830,14610
2017-03-09 18:14:15.348073,7405,8070,-2390,13028,-1365,5838,-3196,3789,317,0,-2830,14610
2017-03-09 18:14:15.349499,-7650,8070,-3999,13028,-2361,5838,-7703,3789,3353,0,-5697,14610
2017-03-09 18:14:15.400627,-7650,8070,-3999,13028,-2361,5838,-7703,3789,3353,0,-5697,14610
2017-03-09 18:14:15.400716,-7650,8070,-3999,13028,-2361,5838,-7703,3789,3353,0,-5697,14610
2017-03-09 18:14:15.400831,-7650,8070,-3999,13028,-2361,5838,-7703,3789,3353,0,-5697,14610
2017-03-09 18:14:15.431397,-7650,8070,-3999,13028,-2361,5838,-7703,3789,3353,0,-5697,14610
2017-03-09 18:14:15.431638,-7650,8070,-3999,13028,-2361,5838,-7703,3789,3353,0,-5697,14610
2017-03-09 18:14:15.431677,-7650,8070,-3999,13028,-2361,5838,-7703,3789,3353,0,-5697,14610
2017-03-09 18:14:15.431757,-7650,8070,-3999,13028,-2361,5838,-7703,3789,3353,0,-5697,14610
2017-03-09 18:14:15.431795,-7650,8070,-3999,13028,-2361,5838,-7703,3789,3353,0,-5697,14610
2017-03-09 18:14:15.431857,3091,8070,-3560,13028,2558,5838,5374,3789,7021,0,-4771,14610
2017-03-09 18:14:15.431884,3091,8070,-3560,13028,2558,5838,5374,3789,7021,0,-4771,14610
2017-03-09 18:14:15.439100,3091,8070,-3560,13028,2558,5838,5374,3789,7021,0,-4771,14610
2017-03-09 18:14:15.473928,1599,8070,6427,13028,6796,5838,-2654,3789,-3437,0,438,14610
2017-03-09 18:14:15.478347,1599,8070,6427,13028,6796,5838,-2654,3789,-3437,0,438,14610
2017-03-09 18:14:15.478510,1599,8070,6427,13028,6796,5838,-2654,3789,-3437,0,438,14610
2017-03-09 18:14:15.509267,-7792,8070,-6231,13028,1844,5838,-3095,3789,1950,0,6043,14610
2017-03-09 18:14:15.509486,-7792,8070,-6231,13028,1844,5838,-3095,3789,1950,0,6043,14610
2017-03-09 18:14:15.551457,-7792,8070,-6231,13028,1844,5838,-3095,3789,1950,0,6043,14610
2017-03-09 18:14:15.551666,-7792,8070,-6231,13028,1844,5838,-3095,3789,1950,0,6043,14610
2017-03-09 18:14:15.551732,-1116,8070,-2839,13028,5990,5838,3835,3789,-5376,0,-3547,14610
2017-03-09 18:14:15.561034,-1116,8070,-2839,13028,5990,5838,3835,3789,-5376,0,-3547,14610
2017-03-09 18:14:15.568139,-1116,8070,-2839,13028,5990,5838,3835,3789,-5376,0,-3547,14610
2017-03-09 18:14:15.608037,-1116,8070,-2839,13028,5990,5838,3835,3789,-5376,0,-3547,14610
2017-03-09 18:14:15.636975,2533,8070,3516,13028,3299,5838,-7249,3789,-2400,0,1950,14610
2017-03-09 18:14:15.637077,-4859,8070,566,13028,7339,5838,-7574,3789,7830,0,-7268,14610
2017-03-09 18:14:15.645474,-4859,8070,566,13028,7339,5838,-7574,3789,7830,0,-7268,14610
2017-03-09 18:14:15.677716,1006,8070,-7904,13028,6010,5838,2026,3789,550,0,-7016,14610
2017-03-09 18:14:15.677806,1006,8070,-7904,13028,6010,5838,2026,3789,550,0,-7016,14610
2017-03-09 18:14:15.677846,1001,8070,-2857,13028,-3962,5838,-1988,3789,-6283,0,-2202,14610
2017-03-09 18:14:15.746811,-6097,8070,7526,13028,6210,5838,-48,3789,591,0,-6299,14610
2017-03-09 18:14:15.747032,-6097,8070,7526,13028,6210,5838,-48,3789,591,0,-6299,14610
2017-03-09 18:14:15.747184,-6097,8070,7526,13028,6210,5838,-48,3789,591,0,-6299,14610
2017-03-09 18:14:15.747353,-8162,8070,6800,13028,-3588,5838,3030,3789,7291,0,-5001,14610
2017-03-09 18:14:15.801364,-8162,8070,6800,13028,-3588,5838,3030,3789,7291,0,-5001,14610
2017-03-09 18:14:15.801592,-8162,8070,6800,13028,-3588,5838,3030,3789,7291,0,-5001,14610
2017-03-09 18:14:15.801761,-3691,8070,7533,13028,1234,5838,-6119,3789,-6963,0,2097,14610
2017-03-09 18:14:15.811329,-3691,8070,7533,13028,1234,5838,-6119,3789,-6963,0,2097,14610
2017-03-09 18:14:15.812698,-2525,8070,-6966,13028,6002,5838,-7509,3789,201,0,1824,14610
2017-03-09 18:14:15.828419,-2525,8070,-6966,13028,6002,5838,-7509,3789,201,0,1824,14610
2017-03-09 18:14:15.833376,-2525,8070,-6966,13028,6002,5838,-7509,3789,201,0,1824,14610
2017-03-09 18:14:15.876089,-2525,8070,-6966,13028,6002,5838,-7509,3789,201,0,1824,14610
2017-03-09 18:14:15.876569,-2525,8070,-6966,13028,6002,5838,-7509,3789,201,0,1824,14610
2017-03-09 18:14:15.895050,-2525,8070,-6966,13028,6002,5838,-7509,3789,201,0,1824,14610
2017-03-09 18:14:15.895481,1524,8070,-3342,13028,4068,5838,6276,3789,7544,0,-5501,4034
2017-03-09 18:14:15.921876,1524,8070,-3342,13028,4068,5838,6276,3789,7544,0,-5501,4034
2017-03-09 18:14:15.922329,1524,8070,-3342,13028,4068,5838,6276,3789,7544,0,-5501,4034
2017-03-09 18:14:15.922623,1524,8070,-3342,13028,4068,5838,6276,3789,7544,0,-5501,4034
2017-03-09 18:14:15.951059,1524,8070,-3342,13028,4068,5838,6276,3789,7544,0,-5501,4034
2017-03-09 18:14:15.982592,1524,8070,-3342,13028,4068,5838,6276,3789,7544,0,-5501,4034
2017-03-09 18:14:15.982658,1524,8070,-3342,13028,4068,5838,6276,3789,7544,0,-5501,4034
2017-03-09 18:14:16.001866,2803,8070,-22,13028,-7546,5838,7629,3789,6063,0,-5172,4034
2017-03-09 18:14:16.011510,2803,8070,-22,13028,-7546,5838,7629,3789,6063,0,-5172,4034
2017-03-09 18:14:16.034956,2803,8070,-22,13028,-7546,5838,7629,3789,6063,0,-5172,4034
2017-03-09 18:14:16.048252,2803,8070,-22,13028,-7546,5838,7629,3789,6063,0,-5172,4034
2017-03-09 18:14:16.074552,2803,8070,-22,13028,-7546,5838,7629,3789,6063,0,-5172,4034
2017-03-09 18:14:16.093365,2803,8070,-22,13028,-7546,5838,7629,3789,6063,0,-5172,4034
2017-03-09 18:14:16.098511,2803,8070,-22,13028,-7546,5838,7629,3789,6063,0,-5172,4034
2017-03-09 18:14:16.118547,3212,8070,-7086,13028,2121,5838,-5228,3789,-1513,0,4979,4034
2017-03-09 18:14:16.126847,3212,8070,-7086,13028,2121,5838,-5228,3789,-1513,0,4979,4034
2017-03-09 18:14:16.183326,3212,8070,-7086,13028,2121,5838,-5228,3789,-1513,0,4979,4034
2017-03-09 18:14:16.183432,-7577,8070,-5424,13028,7329,5838,-2106,3789,7363,0,2429,4034
2017-03-09 18:14:16.183474,7262,8070,2244,13028,-4286,5838,-1245,3789,-7772,0,5215,4034
2017-03-09 18:14:16.183536,3764,8070,1995,13028,1318,5838,-7887,3789,-5823,0,3895,4034
2017-03-09 18:14:16.192887,3764,8070,1995,13028,1318,5838,-7887,3789,-5823,0,3895,4034
2017-03-09 18:14:16.235972,3764,8070,1995,13028,1318,5838,-7887,3789,-5823,0,3895,4034
2017-03-09 18:14:16.236147,-1070,8070,-5272,13028,4115,5838,4887,3789,-1508,0,6340,4034
2017-03-09 18:14:16.236192,-1070,8070,-5272,13028,4115,5838,4887,3789,-1508,0,6340,4034
2017-03-09 18:14:16.269710,-1070,8070,-5272,13028,4115,5838,4887,3789,-1508,0,6340,4034
2017-03-09 18:14:16.275793,-1070,8070,-5272,13028,4115,5838,4887,3789,-1508,0,6340,4034
2017-03-09 18:14:16.276056,3265,8070,6471,13028,-4125,5838,-2458,3789,-2275,0,1381,4034
2017-03-09 18:14:16.297779,3265,8070,6471,13028,-4125,5838,-2458,3789,-2275,0,1381,4034
2017-03-09 18:14:16.337798,3265,8070,6471,13028,-4125,5838,-2458,3789,-2275,0,1381,4034
2017-03-09 18:14:16.338071,3265,8070,6471,13028,-4125,5838,-2458,3789,-2275,0,1381,4034
2017-03-09 18:14:16.342314,3265,8070,6471,13028,-4125,5838,-2458,3789,-2275,0,1381,4034
2017-03-09 18:14:16.361127,3265,8070,6471,13028,-4125,5838,-2458,3789,-2275,0,1381,4034
2017-03-09 18:14:16.373257,-7056,8070,6553,13028,-1361,5838,-3351,3789,164,0,-4624,4034
2017-03-09 18:14:16.383621,-505,8070,6428,13028,-7863,5838,4628,3789,-802,0,1428,4034
2017-03-09 18:14:16.421779,-2577,8070,-3575,13028,-3036,5838,640,3789,-545,0,-7348,4034
2017-03-09 18:14:16.421988,-8105,8070,6552,13028,-7507,5838,6265,3789,5933,0,6633,4034
2017-03-09 18:14:16.422138,-3144,8070,-4097,13028,-409,5838,5650,3789,-6979,0,-7326,4034
2017-03-09 18:14:16.445777,-3144,8070,-4097,13028,-409,5838,5650,3789,-6979,0,-7326,4034
2017-03-09 18:14:16.471430,8117,8070,8042,13028,-7658,5838,3266,3789,-5656,0,-1105,4034
2017-03-09 18:14:16.471938,8117,8070,8042,13028,-7658,5838,3266,3789,-5656,0,-1105,4034
2017-03-09 18:14:16.489941,8117,8070,8042,13028,-7658,5838,3266,3789,-5656,0,-1105,4034
2017-03-09 18:14:16.506392,8117,8070,8042,13028,-7658,5838,3266,3789,-5656,0,-1105,4034
2017-03-09 18:14:16.529983,8117,8070,8042,13028,-7658,5838,3266,3789,-5656,0,-1105,4034
2017-03-09 18:14:16.550370,8117,8070,8042,13028,-7658,5838,3266,3789,-5656,0,-1105,4034
2017-03-09 18:14:16.550926,-3746,8070,6153,13028,7441,5838,7657,3789,-6167,0,-7639,4034
2017-03-09 18:14:16.606381,-3746,8070,6153,13028,7441,5838,7657,3789,-6167,0,-7639,4034
2017-03-09 18:14:16.638372,-3746,8070,6153,13028,7441,5838,7657,3789,-6167,0,-7639,4034
2017-03-09 18:14:16.638592,7286,8070,-3369,13028,-3082,5838,-566,3789,-2731,0,-204,4034
2017-03-09 18:14:16.638848,7286,8070,-3369,13028,-3082,5838,-566,3789,-2731,0,-204,4034
2017-03-09 18:14:16.672251,2228,8070,1415,13028,6471,5838,-254,3789,-1967,0,-3067,4034
2017-03-09 18:14:16.681637,2228,8070,1415,13028,6471,5838,-254,3789,-1967,0,-3067,4034
2017-03-09 18:14:16.707984,6402,8070,4433,13028,-808,5838,1374,3789,6034,0,-5559,4034
2017-03-09 18:14:16.708235,6402,8070,4433,13028,-808,5838,1374,3789,6034,0,-5559,4034
2017-03-09 18:14:16.735538,3144,8070,3963,13028,4661,5838,7723,3789,6742,0,3115,4034
2017-03-09 18:14:16.749574,3144,8070,3963,13028,4661,5838,7723,3789,6742,0,3115,4034
2017-03-09 18:14:16.788496,-4816,8070,-5518,13028,6139,5838,-7458,3789,2972,0,1710,4034
2017-03-09 18:14:16.788947,-4816,8070,-5518,13028,6139,5838,-7458,3789,2972,0,1710,4034
2017-03-09 18:14:16.792250,-4816,8070,-5518,13028,6139,5838,-7458,3789,2972,0,1710,4034
2017-03-09 18:14:16.813327,-4816,8070,-5518,13028,6139,5838,-7458,3789,2972,0,1710,4034
2017-03-09 18:14:16.831894,-4816,8070,-5518,13028,6139,5838,-7458,3789,2972,0,1710,4034
2017-03-09 18:14:16.890459,5283,8070,-5577,13028,-4002,8274,740,3789,-5768,0,6460,4034
2017-03-09 18:14:16.891102,5283,8070,-5577,13028,-4002,8274,740,3789,-5768,0,6460,4034
2017-03-09 18:14:16.891314,5283,8070,-5577,13028,-4002,8274,740,3789,-5768,0,6460,4034
2017-03-09 18:14:16.940267,5283,8070,-5577,13028,-4002,8274,740,3789,-5768,0,6460,4034
2017-03-09 18:14:16.993688,5283,8070,-5577,13028,-4002,8274,740,3789,-5768,0,6460,4034
2017-03-09 18:14:16.993867,-1890,8070,-4240,13028,-5459,8274,1384,3789,-2469,0,-6862,4034
2017-03-09 18:14:17.003947,5424,8070,-5125,13028,4401,8274,-5945,3789,7310,0,4866,4034
2017-03-09 18:14:17.004356,-6148,8070,-7076,13028,2117,8274,6727,3789,1249,0,-6269,4034
2017-03-09 18:14:17.004505,7268,8070,487,13028,7307,4912,-293,3789,4795,0,39,4034
2017-03-09 18:14:17.004666,7268,8070,487,13028,7307,4912,-293,3789,4795,0,39,4034
2017-03-09 18:14:17.026827,7268,8070,487,13028,7307,4912,-293,3789,4795,0,39,4034
2017-03-09 18:14:17.026891,7268,8070,487,13028,7307,4912,-293,3789,4795,0,39,4034
2017-03-09 18:14:17.056971,7268,8070,487,13028,7307,4912,-293,3789,4795,0,39,4034
2017-03-09 18:14:17.089583,-2274,8070,7666,13028,2423,4912,3142,3789,4861,0,-2615,4034
2017-03-09 18:14:17.089767,-2274,8070,7666,13028,2423,4912,3142,3789,4861,0,-2615,4034
2017-03-09 18:14:17.104807,-2274,8070,7666,13028,2423,4912,3142,3789,4861,0,-2615,4034
2017-03-09 18:14:17.111109,-2274,8070,7666,13028,2423,4912,3142,3789,4861,0,-2615,4034
2017-03-09 18:14:17.150360,4763,8070,7950,13028,-7433,4912,-14,3789,3237,0,3197,4034
2017-03-09 18:14:17.150634,4763,8070,7950,13028,-7433,4912,-14,3789,3237,0,3197,4034
2017-03-09 18:14:17.165907,4763,8070,7950,13028,-7433,4912,-14,3789,3237,0,3197,4034
2017-03-09 18:14:17.180473,2341,8070,7073,13028,-2317,4912,-5606,3789,6532,0,758,3016
2017-03-09 18:14:17.180763,2341,8070,7073,13028,-2317,4912,-5606,3789,6532,0,758,3016
2017-03-09 18:14:17.217748,2341,8070,7073,13028,-2317,4912,-5606,3789,6532,0,758,3016
2017-03-09 18:14:17.264659,-159,8070,-4504,13028,-3514,4912,7337,3789,4859,0,1157,3016
2017-03-09 18:14:17.269652,-4803,8070,-6784,13028,-2355,4912,-1035,3789,5248,0,86,3016
2017-03-09 18:14:17.270212,-4803,8070,-6784,13028,-2355,4912,-1035,3789,5248,0,86,3016
2017-03-09 18:14:17.270382,-4803,8070,-6784,13028,-2355,4912,-1035,3789,5248,0,86,3016
2017-03-09 18:14:17.270442,-4803,8070,-6784,13028,-2355,4912,-1035,3789,5248,0,86,3016
2017-03-09 18:14:17.317665,5923,8070,2265,13028,-5980,4912,6450,3789,-3584,0,3311,3016
2017-03-09 18:14:17.329618,5923,8070,2265,13028,-5980,4912,6450,3789,-3584,0,3311,3016
2017-03-09 18:14:17.358406,5923,8070,2265,13028,-5980,4912,6450,3789,-3584,0,3311,3016
2017-03-09 18:14:17.358506,5923,8070,2265,13028,-5980,4912,6450,3789,-3584,0,3311,3016
2017-03-09 18:14:17.358549,-2097,8070,-1984,13028,2469,4912,-1298,3789,6268,0,5297,3016
2017-03-09 18:14:17.358587,-2097,8070,-1984,13028,2469,4912,-1298,3789,6268,0,5297,3016
2017-03-09 18:14:17.372728,-2097,8070,-1984,13028,2469,4912,-1298,3789,6268,0,5297,3016
2017-03-09 18:14:17.470998,-2097,8070,-1984,13028,2469,4912,-1298,3789,6268,0,5297,3016
2017-03-09 18:14:17.471244,-2097,8070,-1984,13028,2469,4912,-1298,3789,6268,0,5297,3016
2017-03-09 18:14:17.520081,-2097,8070,-1984,13028,2469,4912,-1298,3789,6268,0,5297,3016
2017-03-09 18:14:17.567277,-1394,8070,-1819,13028,6190,4912,2039,3789,6701,0,-9,3016
2017-03-09 18:14:17.567476,-1394,8070,-1819,13028,6190,4912,2039,3789,6701,0,-9,3016
2017-03-09 18:14:17.567684,-1394,8070,-1819,13028,6190,4912,2039,3789,6701,0,-9,3016
2017-03-09 18:14:17.567847,-1394,8070,-1819,13028,6190,4912,2039,3789,6701,0,-9,3016
2017-03-09 18:14:17.611000,-1394,8070,-1819,13028,6190,4912,2039,3789,6701,0,-9,3016
2017-03-09 18:14:17.611208,-1394,8070,-1819,13028,6190,4912,2039,3789,6701,0,-9,3016
2017-03-09 18:14:17.627550,-1394,8070,-1819,13028,6190,4912,2039,3789,6701,0,-9,3016
2017-03-09 18:14:17.657771,-1394,8070,-1819,13028,6190,4912,2039,3789,6701,0,-9,3016
2017-03-09 18:14:17.657843,-1394,8070,-1819,13028,6190,4912,2039,3789,6701,0,-9,3016
2017-03-09 18:14:17.657920,-8049,8070,-885,13028,2189,4912,967,3789,3535,0,2531,3016
2017-03-09 18:14:17.657976,-8049,8070,-885,13028,2189,4912,967,3789,3535,0,2531,3016
2017-03-09 18:14:17.658138,-8049,8070,-885,13028,2189,4912,967,3789,3535,0,2531,3016
2017-03-09 18:14:17.658352,-8049,8070,-885,13028,2189,4912,967,3789,3535,0,2531,3016
2017-03-09 18:14:17.658407,-8049,8070,-885,13028,2189,4912,967,3789,3535,0,2531,3016
2017-03-09 18:14:17.658488,281,8070,-724,13028,4611,4912,-300,3789,-1396,0,3470,3016
2017-03-09 18:14:17.658548,281,8070,-724,13028,4611,4912,-300,3789,-1396,0,3470,3016
2017-03-09 18:14:17.658624,281,8070,-724,13028,4611,4912,-300,3789,-1396,0,3470,3016
2017-03-09 18:14:17.658730,281,8070,-724,13028,4611,4912,-300,3789,-1396,0,3470,3016
2017-03-09 18:14:17.658785,281,8070,-724,13028,4611,4912,-300,3789,-1396,0,3470,3016
2017-03-09 18:14:17.718701,281,8070,-724,13028,4611,4912,-300,3789,-1396,0,3470,3016
2017-03-09 18:14:17.718776,281,8070,-724,13028,4611,4912,-300,3789,-1396,0,3470,3016
2017-03-09 18:14:17.718817,281,8070,-724,13028,4611,4912,-300,3789,-1396,0,3470,3016
2017-03-09 18:14:17.718855,281,8070,-724,13028,4611,4912,-300,3789,-1396,0,3470,3016
2017-03-09 18:14:17.737435,281,8070,-724,13028,4611,4912,-300,3789,-1396,0,3470,3016
2017-03-09 18:14:17.737797,-2468,8070,4477,13028,1963,4912,-8117,3789,4669,0,7371,3016
2017-03-09 18:14:17.761569,-2468,8070,4477,13028,1963,4912,-8117,3789,4669,0,7371,3016
2017-03-09 18:14:17.802904,-2468,8070,4477,13028,1963,4912,-8117,3789,4669,0,7371,3016
2017-03-09 18:14:17.803123,-2468,8070,4477,13028,1963,4912,-8117,3789,4669,0,7371,3016
2017-03-09 18:14:17.837652,-2468,8070,4477,13028,1963,4912,-8117,3789,4669,0,7371,3016
2017-03-09 18:14:17.837926,6518,8070,7807,13028,1604,4912,7524,3789,-2017,0,2784,3016
2017-03-09 18:14:17.845713,6518,8070,7807,13028,1604,4912,7524,3789,-2017,0,2784,3016
2017-03-09 18:14:17.850851,6518,8070,7807,13028,1604,4912,7524,3789,-2017,0,2784,3016
2017-03-09 18:14:17.877721,-2709,8070,3018,13028,4749,4912,-4493,12378,318,0,7010,3016
2017-03-09 18:14:17.877891,-2709,8070,3018,13028,4749,4912,-4493,12378,318,0,7010,3016
2017-03-09 18:14:17.877940,-2709,8070,3018,13028,4749,4912,-4493,12378,318,0,7010,3016
2017-03-09 18:14:17.882225,-6837,8070,3937,13028,-600,4912,1628,12378,-6837,0,-2297,3016
2017-03-09 18:14:17.888676,5175,8070,-4917,13028,-4443,4912,4718,12378,-4155,0,7483,10960
2017-03-09 18:14:17.913207,5175,8070,-4917,13028,-4443,4912,4718,12378,-4155,0,7483,10960
2017-03-09 18:14:17.938496,-6194,8070,-4789,13028,-4564,4912,-3812,12378,4722,0,2677,10960
2017-03-09 18:14:17.938587,-6194,8070,-4789,13028,-4564,4912,-3812,12378,4722,0,2677,10960
2017-03-09 18:14:17.945899,-6194,8070,-4789,13028,-4564,4912,-3812,12378,4722,0,2677,10960
2017-03-09 18:14:17.952844,5685,8070,3627,13028,-1110,4912,-919,12378,2522,0,-814,10960
2017-03-09 18:14:17.971250,5685,8070,3627,13028,-1110,4912,-919,12378,2522,0,-814,10960
2017-03-09 18:14:18.000476,5685,8070,3627,13028,-1110,4912,-919,12378,2522,0,-814,10960
2017-03-09 18:14:18.034227,5685,8070,3627,13028,-1110,4912,-919,12378,2522,0,-814,10960
2017-03-09 18:14:18.034527,-576,8070,-7538,13028,6865,4912,-3714,12378,-4592,0,6711,10960
2017-03-09 18:14:18.053148,-576,8070,-7538,13028,6865,4912,-3714,12378,-4592,0,6711,10960
2017-03-09 18:14:18.059600,2610,8070,8189,13028,-6409,4912,-4735,12378,-2370,0,-6490,10960
2017-03-09 18:14:18.092025,2610,8070,8189,13028,-6409,4912,-4735,12378,-2370,0,-6490,10960
2017-03-09 18:14:18.092260,2610,8070,8189,13028,-6409,4912,-4735,12378,-2370,0,-6490,10960
2017-03-09 18:14:18.109410,2610,8070,8189,13028,-6409,4912,-4735,12378,-2370,0,-6490,10960
2017-03-09 18:14:18.137485,2610,8070,8189,13028,-6409,4912,-4735,12378,-2370,0,-6490,10960
2017-03-09 18:14:18.165827,-7560,8070,-6715,13028,-2911,4912,-2476,12378,7084,0,7940,10960
2017-03-09 18:14:18.181408,-7560,8070,-6715,13028,-2911,4912,-2476,12378,7084,0,7940,10960
2017-03-09 18:14:18.194137,-7560,8070,-6715,13028,-2911,4912,-2476,12378,7084,0,7940,10960
2017-03-09 18:14:18.229752,-7560,8070,-6715,13028,-2911,4912,-2476,12378,7084,0,7940,10960
2017-03-09 18:14:18.266256,-5730,8070,7672,6645,-3410,4912,5897,12378,4770,0,-4,10960
2017-03-09 18:14:18.301607,-5730,8070,7672,6645,-3410,4912,5897,12378,4770,0,-4,10960
2017-03-09 18:14:18.317461,6070,8070,-5520,6645,-774,4912,-1525,12378,968,0,-6133,10960
2017-03-09 18:14:18.339262,6070,8070,-5520,6645,-774,4912,-1525,12378,968,0,-6133,10960
2017-03-09 18:14:18.358104,6070,8070,-5520,6645,-774,4912,-1525,12378,968,0,-6133,10960
2017-03-09 18:14:18.394693,6070,8070,-5520,6645,-774,4912,-1525,12378,968,0,-6133,10960
2017-03-09 18:14:18.394891,6070,8070,-5520,6645,-774,4912,-1525,12378,968,0,-6133,10960
2017-03-09 18:14:18.412197,6070,8070,-5520,6645,-774,4912,-1525,12378,968,0,-6133,10960
2017-03-09 18:14:18.412495,6070,8070,-5520,6645,-774,4912,-1525,12378,968,0,-6133,10960
2017-03-09 18:14:18.465183,6070,8070,-5520,6645,-774,4912,-1525,12378,968,0,-6133,10960
2017-03-09 18:14:18.465399,-7071,8070,-1769,6645,-7765,4912,2031,12378,5223,0,-2287,10960
2017-03-09 18:14:18.498629,-7071,8070,-1769,6645,-7765,4912,2031,12378,5223,0,-2287,10960
2017-03-09 18:14:18.518632,-7071,8070,-1769,6645,-7765,4912,2031,12378,5223,0,-2287,10960
2017-03-09 18:14:18.538706,-7071,8070,-1769,6645,-7765,4912,2031,12378,5223,0,-2287,10960
2017-03-09 18:14:18.539448,-6245,8070,-4620,6645,-1617,4912,-4375,12378,7201,0,1335,10960
2017-03-09 18:14:18.574976,-6245,8070,-4620,6645,-1617,4912,-4375,12378,7201,0,1335,10960
2017-03-09 18:14:18.612180,-6245,8070,-4620,6645,-1617,4912,-4375,12378,7201,0,1335,10960
2017-03-09 18:14:18.612393,-6245,8070,-4620,6645,-1617,4912,-4375,12378,7201,0,1335,10960
2017-03-09 18:14:18.612698,-6245,8070,-4620,6645,-1617,4912,-4375,12378,7201,0,1335,10960
2017-03-09 18:14:18.632979,-6245,8070,-4620,6645,-1617,4912,-4375,12378,7201,0,1335,10960
2017-03-09 18:14:18.649732,-6245,8070,-4620,6645,-1617,4912,-4375,12378,7201,0,1335,10960
2017-03-09 18:14:18.669546,-6245,8070,-4620,6645,-1617,4912,-4375,12378,7201,0,1335,10960
2017-03-09 18:14:18.689976,-6245,8070,-4620,6645,-1617,4912,-4375,12378,7201,0,1335,10960
2017-03-09 18:14:18.713730,-6245,8070,-4620,6645,-1617,4912,-4375,12378,7201,0,1335,10960
2017-03-09 18:14:18.713898,4224,8070,-833,6645,-7035,4912,-526,12378,1912,0,-8156,10960
2017-03-09 18:14:18.713971,4224,8070,-833,6645,-7035,4912,-526,12378,1912,0,-8156,10960
2017-03-09 18:14:18.742218,4224,8070,-833,6645,-7035,4912,-526,12378,1912,0,-8156,10960
2017-03-09 18:14:18.757471,-7689,8070,-1266,6645,1587,4912,4326,12378,3512,0,3441,10960
2017-03-09 18:14:18.765734,1930,8070,-3246,6645,1683,4912,3536,12378,-1100,11086,-4425,10960
2017-03-09 18:14:18.774089,1930,8070,-3246,6645,1683,4912,3536,12378,-1100,11086,-4425,10960
2017-03-09 18:14:18.798665,1930,8070,-3246,6645,1683,4912,3536,12378,-1100,11086,-4425,10960
2017-03-09 18:14:18.798850,1930,8070,-3246,6645,1683,4912,3536,12378,-1100,11086,-4425,10960
2017-03-09 18:14:18.810173,1930,8070,-3246,6645,1683,4912,3536,12378,-1100,11086,-4425,10960
2017-03-09 18:14:18.841379,-4801,8070,268,6645,6525,626,5204,12378,4335,11086,6419,10960
2017-03-09 18:14:18.841446,-4801,8070,268,6645,6525,626,5204,12378,4335,11086,6419,10960
2017-03-09 18:14:18.841484,-4801,8070,268,6645,6525,626,5204,12378,4335,11086,6419,10960
2017-03-09 18:14:18.867752,7400,8070,87,6645,-4858,626,-2066,12378,-7347,11086,1271,10960
2017-03-09 18:14:18.868132,-784,8070,4387,6645,-6226,626,-2002,12378,-7153,11086,-2761,10960
2017-03-09 18:14:18.882457,-784,8070,4387,6645,-6226,626,-2002,12378,-7153,11086,-2761,10960
2017-03-09 18:14:18.896897,-784,8070,4387,6645,-6226,626,-2002,12378,-7153,11086,-2761,10960
2017-03-09 18:14:18.910033,-2168,8070,-5189,6645,-3767,626,-2993,12378,2234,11086,-3982,10960
2017-03-09 18:14:18.926870,-2168,8070,-5189,6645,-3767,626,-2993,12378,2234,11086,-3982,10960
2017-03-09 18:14:18.953263,-2168,8070,-5189,6645,-3767,626,-2993,12378,2234,11086,-3982,10960
2017-03-09 18:14:18.953965,-2168,8070,-5189,6645,-3767,626,-2993,12378,2234,11086,-3982,10960
2017-03-09 18:14:18.969098,-2168,8070,-5189,6645,-3767,626,-2993,12378,2234,11086,-3982,10960
2017-03-09 18:14:18.982341,-2168,8070,-5189,6645,-3767,626,-2993,12378,2234,11086,-3982,10960
2017-03-09 18:14:19.010382,-2168,8070,-5189,6645,-3767,626,-2993,12378,2234,11086,-3982,10960
2017-03-09 18:14:19.010519,-4085,8070,-774,6645,3076,626,637,12378,-2498,11086,-6770,10960
2017-03-09 18:14:19.029674,-4085,8070,-774,6645,3076,626,637,12378,-2498,11086,-6770,10960
2017-03-09 18:14:19.038405,-4085,8070,-774,6645,3076,626,637,12378,-2498,11086,-6770,10960
2017-03-09 18:14:19.050456,-4085,8070,-774,6645,3076,626,637,12378,-2498,11086,-6770,10960
2017-03-09 18:14:19.060562,-4109,8070,620,6645,-4998,626,-6541,12378,-4166,11086,-8054,10960
2017-03-09 18:14:19.071948,-4109,8070,620,6645,-4998,626,-6541,12378,-4166,11086,-8054,10960
2017-03-09 18:14:19.078128,-4109,8070,620,6645,-4998,626,-6541,12378,-4166,11086,-8054,10960
2017-03-09 18:14:19.107223,-4109,8070,620,6645,-4998,626,-6541,12378,-4166,11086,-8054,10960
2017-03-09 18:14:19.114587,2505,8070,-4999,6645,-4041,626,-1116,12378,6652,11086,5431,10960
2017-03-09 18:14:19.134764,2505,8070,-4999,6645,-4041,626,-1116,12378,6652,11086,5431,10960
2017-03-09 18:14:19.149645,2505,8070,-4999,6645,-4041,626,-1116,12378,6652,11086,5431,10960
2017-03-09 18:14:19.169737,2505,8070,-4999,6645,-4041,626,-1116,12378,6652,11086,5431,10960
2017-03-09 18:14:19.169894,-3305,8070,6692,6645,-6242,626,5630,12378,3932,11086,482,10960
2017-03-09 18:14:19.170029,-3305,8070,6692,6645,-6242,626,5630,12378,3932,11086,482,10960
2017-03-09 18:14:19.186050,-3305,8070,6692,6645,-6242,626,5630,12378,3932,11086,482,10960
2017-03-09 18:14:19.195321,-3305,8070,6692,6645,-6242,626,5630,12378,3932,11086,482,10960
2017-03-09 18:14:19.221520,2611,8070,5565,6645,1876,626,-3334,12378,3408,11086,375,10960
2017-03-09 18:14:19.221683,2611,8070,5565,6645,1876,626,-3334,12378,3408,11086,375,10960
2017-03-09 18:14:19.235995,2611,8070,5565,6645,1876,626,-3334,12378,3408,11086,375,10960
2017-03-09 18:14:19.241123,2611,8070,5565,6645,1876,626,-3334,12378,3408,11086,375,10960
2017-03-09 18:14:19.270710,949,8070,3019,6645,7882,626,4831,12378,8144,11086,613,10960
2017-03-09 18:14:19.277846,949,8070,3019,6645,7882,626,4831,12378,8144,11086,613,10960
2017-03-09 18:14:19.297775,949,8070,3019,6645,7882,626,4831,12378,8144,11086,613,10960
2017-03-09 18:14:19.310382,949,8070,3019,6645,7882,626,4831,12378,8144,11086,613,10960
2017-03-09 18:14:19.322370,949,8070,3019,6645,7882,626,4831,12378,8144,11086,613,10960
2017-03-09 18:14:19.337551,949,8070,3019,6645,7882,626,4831,12378,8144,11086,613,10960
2017-03-09 18:14:19.341938,949,8070,3019,6645,7882,626,4831,12378,8144,11086,613,10960
2017-03-09 18:14:19.362342,949,8070,3019,6645,7882,626,4831,12378,8144,11086,613,10960
2017-03-09 18:14:19.382757,2444,8070,6975,6645,-6691,626,-1609,12378,-7161,11086,2116,10960
2017-03-09 18:14:19.382965,-6934,8070,-6953,6645,6446,626,-5078,12378,-3895,11086,7681,10960
2017-03-09 18:14:19.431388,-6934,8070,-6953,6645,6446,626,-5078,12378,-3895,11086,7681,10960
2017-03-09 18:14:19.445949,-6934,8070,-6953,6645,6446,626,-5078,12378,-3895,11086,7681,10960
2017-03-09 18:14:19.472565,-6934,8070,-6953,6645,6446,626,-5078,12378,-3895,11086,7681,10960
2017-03-09 18:14:19.472859,5542,8070,28,6645,7504,626,1675,12378,-1128,11086,-7693,13591
2017-03-09 18:14:19.485072,5542,8070,28,6645,7504,626,1675,12378,-1128,11086,-7693,13591
2017-03-09 18:14:19.528175,5542,8070,28,6645,7504,626,1675,12378,-1128,11086,-7693,13591
2017-03-09 18:14:19.528240,5542,8070,28,6645,7504,626,1675,12378,-1128,11086,-7693,13591
2017-03-09 18:14:19.528657,1310,8070,-1432,6645,7857,626,-1202,12378,-5336,11086,-4405,13591
2017-03-09 18:14:19.535609,1310,8070,-1432,6645,7857,626,-1202,12378,-5336,11086,-4405,13591
2017-03-09 18:14:19.547545,1310,8070,-1432,6645,7857,626,-1202,12378,-5336,11086,-4405,13591
2017-03-09 18:14:19.547697,1310,8070,-1432,6645,7857,626,-1202,12378,-5336,11086,-4405,13591
2017-03-09 18:14:19.564227,-5463,8070,-4156,6645,6263,626,-7984,12378,1542,11086,-4531,13591
2017-03-09 18:14:19.572956,-5463,8070,-4156,6645,6263,626,-7984,12378,1542,11086,-4531,13591
2017-03-09 18:14:19.597008,-5463,8070,-4156,6645,6263,626,-7984,12378,1542,11086,-4531,13591
2017-03-09 18:14:19.611085,-5463,8070,-4156,6645,6263,626,-7984,12378,1542,11086,-4531,13591
2017-03-09 18:14:19.611289,-5463,8070,-4156,6645,6263,626,-7984,12378,1542,11086,-4531,13591
2017-03-09 18:14:19.621413,1555,1713,2675,6645,4511,626,-5895,12378,-4724,11086,8067,13591
2017-03-09 18:14:19.642274,-4683,1713,2394,6645,2203,626,-6912,12378,-5114,11086,2787,13591
2017-03-09 18:14:19.656903,-4683,1713,2394,6645,2203,626,-6912,12378,-5114,11086,2787,13591
2017-03-09 18:14:19.671417,4377,1713,4790,6645,1481,626,2576,12378,4474,11086,7812,13591
2017-03-09 18:14:19.682751,-2719,1713,-3040,6645,2542,626,-2819,12378,-6499,11086,-3130,13591
2017-03-09 18:14:19.703876,-2719,1713,-3040,6645,2542,626,-2819,12378,-6499,11086,-3130,13591
2017-03-09 18:14:19.703947,-2719,1713,-3040,6645,2542,626,-2819,12378,-6499,11086,-3130,13591
2017-03-09 18:14:19.721535,-2935,1713,6925,6645,7447,626,825,12378,-2034,11086,4495,13591
2017-03-09 18:14:19.744250,-2935,1713,6925,6645,7447,626,825,12378,-2034,11086,4495,13591
2017-03-09 18:14:19.744402,3136,1713,-1875,6645,4085,626,-7244,12378,7022,11086,-1224,4781
2017-03-09 18:14:19.766288,3136,1713,-1875,6645,4085,626,-7244,12378,7022,11086,-1224,4781
2017-03-09 18:14:19.787039,3136,1713,-1875,6645,4085,626,-7244,12378,7022,11086,-1224,4781
2017-03-09 18:14:19.813663,3136,1713,-1875,6645,4085,626,-7244,12378,7022,11086,-1224,4781
2017-03-09 18:14:19.824787,2394,1713,4924,6645,-6754,626,-4451,12378,4844,11086,-2607,4781
2017-03-09 18:14:19.861871,2394,1713,4924,6645,-6754,626,-4451,12378,4844,11086,-2607,4781
2017-03-09 18:14:19.862466,2394,1713,4924,6645,-6754,626,-4451,12378,4844,11086,-2607,4781
2017-03-09 18:14:19.878134,2394,1713,4924,6645,-6754,626,-4451,12378,4844,11086,-2607,4781
2017-03-09 18:14:19.890604,3941,1713,-7462,6645,-5645,626,3880,12378,-2782,11086,-685,4781
2017-03-09 18:14:19.901421,3941,1713,-7462,6645,-5645,626,3880,12378,-2782,11086,-685,4781
2017-03-09 18:14:19.929581,3941,1713,-7462,6645,-5645,626,3880,12378,-2782,11086,-685,4781
2017-03-09 18:14:19.929727,3941,1713,-7462,6645,-5645,626,3880,12378,-2782,11086,-685,4781
2017-03-09 18:14:19.949816,73,1713,-1945,6645,2373,626,-773,12378,4540,11086,-7486,4781
2017-03-09 18:14:19.965762,73,1713,-1945,6645,2373,626,-773,12378,4540,11086,-7486,4781
2017-03-09 18:14:19.971954,3235,1713,-3000,6645,6348,626,-4675,12378,5315,11086,7034,4781
2017-03-09 18:14:20.013553,3235,1713,-3000,6645,6348,626,-4675,12378,5315,11086,7034,4781
2017-03-09 18:14:20.029601,3235,1713,-3000,6645,6348,626,-4675,12378,5315,11086,7034,4781
2017-03-09 18:14:20.035490,3235,1713,-3000,6645,6348,626,-4675,12378,5315,11086,7034,4781
2017-03-09 18:14:20.042735,-2305,1713,589,6645,-5574,626,-770,12378,-7721,11086,3618,4781
2017-03-09 18:14:20.066157,-1401,1713,-6983,6645,1943,626,4920,12378,-1418,11086,631,4781
2017-03-09 18:14:20.066476,-1401,1713,-6983,6645,1943,626,4920,12378,-1418,11086,631,4781
2017-03-09 18:14:20.073716,-1401,1713,-6983,6645,1943,626,4920,12378,-1418,11086,631,4781
2017-03-09 18:14:20.090348,-6367,1713,3995,3723,723,626,-3132,12378,-1915,11086,3595,4781
2017-03-09 18:14:20.098443,-6367,1713,3995,3723,723,626,-3132,12378,-1915,11086,3595,4781
2017-03-09 18:14:20.117047,-6367,1713,3995,3723,723,626,-3132,12378,-1915,11086,3595,4781
2017-03-09 18:14:20.124102,-6367,1713,3995,3723,723,626,-3132,12378,-1915,11086,3595,4781
2017-03-09 18:14:20.141780,-6367,1713,3995,3723,723,626,-3132,12378,-1915,11086,3595,4781
2017-03-09 18:14:20.153131,-6367,1713,3995,3723,723,626,-3132,12378,-1915,11086,3595,4781
2017-03-09 18:14:20.173680,-7056,1713,-567,5016,-5747,626,2076,12378,-5146,11086,-8054,4781
2017-03-09 18:14:20.173843,-7056,1713,-567,5016,-5747,626,2076,12378,-5146,11086,-8054,4781
2017-03-09 18:14:20.193646,-7056,1713,-567,5016,-5747,626,2076,12378,-5146,11086,-8054,4781
2017-03-09 18:14:20.227004,-7056,1713,-567,5016,-5747,626,2076,12378,-5146,11086,-8054,4781
2017-03-09 18:14:20.227158,-7056,1713,-567,5016,-5747,626,2076,12378,-5146,11086,-8054,4781
2017-03-09 18:14:20.241134,-787,1713,-2562,5016,4513,626,2072,12378,-2108,11086,4459,4781
2017-03-09 18:14:20.241901,-787,1713,-2562,5016,4513,626,2072,12378,-2108,11086,4459,4781
2017-03-09 18:14:20.263412,-1538,1713,-190,5016,-4838,626,-1365,12378,7868,11086,1808,4781
2017-03-09 18:14:20.293260,-1538,1713,-190,5016,-4838,626,-1365,12378,7868,11086,1808,4781
2017-03-09 18:14:20.301713,-1538,1713,-190,5016,-4838,626,-1365,12378,7868,11086,1808,4781
2017-03-09 18:14:20.323307,-1538,1713,-190,5016,-4838,626,-1365,12378,7868,11086,1808,4781
2017-03-09 18:14:20.333780,-1538,1713,-190,5016,-4838,626,-1365,12378,7868,11086,1808,4781
2017-03-09 18:14:20.355997,-1538,1713,-190,5016,-4838,626,-1365,12378,7868,11086,1808,4781
2017-03-09 18:14:20.356603,-1538,1713,-190,5016,-4838,626,-1365,12378,7868,11086,1808,4781
2017-03-09 18:14:20.384240,-1538,1713,-190,5016,-4838,626,-1365,12378,7868,11086,1808,4781
2017-03-09 18:14:20.384393,-1538,1713,-190,5016,-4838,626,-1365,12378,7868,11086,1808,4781
2017-03-09 18:14:20.385119,-1538,1713,-190,5016,-4838,626,-1365,12378,7868,11086,1808,4781
2017-03-09 18:14:20.415222,-6032,1713,-7295,5016,2404,626,-4257,12378,7918,11086,-8032,4781
2017-03-09 18:14:20.434212,-6032,1713,-7295,5016,2404,626,-4257,12378,7918,11086,-8032,4781
2017-03-09 18:14:20.438724,-6032,1713,-7295,5016,2404,626,-4257,12378,7918,11086,-8032,4781
2017-03-09 18:14:20.441680,3354,1713,-4836,5016,2917,626,2829,12378,3357,11086,1084,4781
2017-03-09 18:14:20.471033,3354,1713,-4836,5016,2917,626,2829,12378,3357,11086,1084,4781
2017-03-09 18:14:20.471194,3354,1713,-4836,5016,2917,626,2829,12378,3357,11086,1084,4781
2017-03-09 18:14:20.477697,3354,1713,-4836,5016,2917,626,2829,12378,3357,11086,1084,4781
2017-03-09 18:14:20.500232,3354,1713,-4836,5016,2917,626,2829,12378,3357,11086,1084,4781
2017-03-09 18:14:20.527828,-5525,1713,5113,5016,5200,626,-4283,12378,5504,11086,-4620,4781
2017-03-09 18:14:20.527950,-5525,1713,5113,5016,5200,626,-4283,12378,5504,11086,-4620,4781
2017-03-09 18:14:20.543164,-5525,1713,5113,5016,5200,626,-4283,12378,5504,11086,-4620,4781
2017-03-09 18:14:20.558168,-5525,1713,5113,5016,5200,626,-4283,12378,5504,11086,-4620,4781
2017-03-09 18:14:20.563513,-5525,1713,5113,5016,5200,626,-4283,12378,5504,11086,-4620,4781
2017-03-09 18:14:20.581964,2817,1713,4732,5016,-7284,626,-6447,12378,5356,11086,1070,4781
2017-03-09 18:14:20.598117,-6431,1713,1080,5016,2894,7745,-5802,12378,2656,8189,2650,4781
2017-03-09 18:14:20.598285,-6431,1713,1080,5016,2894,7745,-5802,12378,2656,8189,2650,4781
2017-03-09 18:14:20.618705,-6431,1713,1080,5016,2894,7745,-5802,12378,2656,8189,2650,4781
2017-03-09 18:14:20.633938,7811,1713,1193,5016,-6208,7745,-1835,12378,4501,8189,2937,4781
2017-03-09 18:14:20.637700,7811,1713,1193,5016,-6208,7745,-1835,12378,4501,8189,2937,4781
2017-03-09 18:14:20.656424,7811,1713,1193,5016,-6208,7745,-1835,12378,4501,8189,2937,4781
2017-03-09 18:14:20.656597,7811,1713,1193,5016,-6208,7745,-1835,12378,4501,8189,2937,4781
2017-03-09 18:14:20.671070,2470,1713,-1910,5016,-7947,7745,-8096,12378,4150,8189,-2192,4781
2017-03-09 18:14:20.680027,2470,1713,-1910,5016,-7947,7745,-8096,12378,4150,8189,-2192,4781
2017-03-09 18:14:20.687711,2470,1713,-1910,5016,-7947,7745,-8096,12378,4150,8189,-2192,4781
2017-03-09 18:14:20.716051,2470,1713,-1910,5016,-7947,7745,-8096,12378,4150,8189,-2192,4781
2017-03-09 18:14:20.716226,2470,1713,-1910,5016,-7947,7745,-8096,12378,4150,8189,-2192,4781
2017-03-09 18:14:20.724352,2462,1713,8112,5016,6103,7745,6754,12378,-8012,8189,-1049,4781
2017-03-09 18:14:20.756013,2462,1713,8112,5016,6103,7745,6754,12378,-8012,8189,-1049,4781
2017-03-09 18:14:20.761724,2462,1713,8112,5016,6103,7745,6754,12378,-8012,8189,-1049,4781
2017-03-09 18:14:20.774694,2462,1713,8112,5016,6103,7745,6754,12378,-8012,8189,-1049,4781
2017-03-09 18:14:20.781445,-871,1713,4571,5016,-6604,7745,-3134,12378,7062,8189,-3663,4781
2017-03-09 18:14:20.790042,-871,1713,4571,5016,-6604,7745,-3134,12378,7062,8189,-3663,4781
2017-03-09 18:14:20.804849,-871,1713,4571,5016,-6604,7745,-3134,12378,7062,8189,-3663,4781
2017-03-09 18:14:20.821323,2813,1713,-8171,5016,-925,7745,-175,12378,816,8189,-2040,4781
2017-03-09 18:14:20.821477,2813,1713,-8171,5016,-925,7745,-175,12378,816,8189,-2040,4781
2017-03-09 18:14:20.832403,2813,1713,-8171,5016,-925,7745,-175,12378,816,8189,-2040,4781
2017-03-09 18:14:20.840936,2813,1713,-8171,5016,-925,7745,-175,12378,816,8189,-2040,4781
2017-03-09 18:14:20.862504,2813,1713,-8171,5016,-925,7745,-175,12378,816,8189,-2040,4781
2017-03-09 18:14:20.881187,2813,1713,-8171,5016,-925,7745,-175,12378,816,8189,-2040,4781
2017-03-09 18:14:20.895562,2813,1713,-8171,5016,-925,7745,-175,12378,816,8189,-2040,4781
2017-03-09 18:14:20.895568,2813,1713,-8171,5016,-925,7745,-175,12378,816,8189,-2040,4781
2017-03-09 18:14:20.911300,6583,1713,1305,5016,-5729,7745,-7583,12378,-3666,8189,-6194,4781
2017-03-09 18:14:20.931809,6583,1713,1305,5016,-5729,7745,-7583,12378,-3666,8189,-6194,4781
2017-03-09 18:14:20.931865,-5411,1713,389,5016,1970,7745,-3114,12378,-3159,8189,2913,4781
2017-03-09 18:14:20.941916,-5411,1713,389,5016,1970,7745,-3114,12378,-3159,8189,2913,4781
2017-03-09 18:14:20.951017,-5411,1713,389,5016,1970,7745,-3114,12378,-3159,8189,2913,4781
2017-03-09 18:14:20.970077,1574,1713,-6839,5016,-6788,7745,-4654,12378,-6287,8189,7065,4781
2017-03-09 18:14:20.970084,1574,1713,-6839,5016,-6788,7745,-4654,12378,-6287,8189,7065,4781
2017-03-09 18:14:20.992203,1574,1713,-6839,5016,-6788,7745,-4654,12378,-6287,8189,7065,4781
2017-03-09 18:14:21.011063,1574,1713,-6839,5016,-6788,7745,-4654,12378,-6287,8189,7065,4781
2017-03-09 18:14:21.011196,1574,1713,-6839,5016,-6788,7745,-4654,12378,-6287,8189,7065,4781
2017-03-09 18:14:21.029738,-1205,1713,5561,5016,6687,7745,1641,12378,-3518,8189,-5284,4781
2017-03-09 18:14:21.041487,-7859,1713,-6371,5016,-6938,7745,-6654,12378,-4377,8189,2452,4781
2017-03-09 18:14:21.059688,-7859,1713,-6371,5016,-6938,7745,-6654,12378,-4377,8189,2452,4781
2017-03-09 18:14:21.059709,-7859,1713,-6371,5016,-6938,7745,-6654,12378,-4377,8189,2452,4781
2017-03-09 18:14:21.081582,-7859,1713,-6371,5016,-6938,7745,-6654,12378,-4377,8189,2452,4781
2017-03-09 18:14:21.081807,7397,1713,-3579,5016,5834,7745,-3868,12378,4536,8189,-1326,4781
2017-03-09 18:14:21.115572,217,1713,3210,5016,-5070,7745,-4248,12378,4870,8189,1600,4781
2017-03-09 18:14:21.129425,217,1713,3210,5016,-5070,7745,-4248,12378,4870,8189,1600,4781
2017-03-09 18:14:21.136041,-5050,1713,-8056,5016,-672,7745,-7814,12378,2449,8189,7786,4781
2017-03-09 18:14:21.166220,-5050,1713,-8056,5016,-672,7745,-7814,12378,2449,8189,7786,4781
2017-03-09 18:14:21.166522,-5050,1713,-8056,5016,-672,7745,-7814,12378,2449,8189,7786,4781
2017-03-09 18:14:21.176218,-5050,1713,-8056,5016,-672,7745,-7814,12378,2449,8189,7786,4781
2017-03-09 18:14:21.191248,-5050,1713,-8056,5016,-672,7745,-7814,12378,2449,8189,7786,4781
2017-03-09 18:14:21.210624,-5050,1713,-8056,5016,-672,7745,-7814,12378,2449,8189,7786,4781
2017-03-09 18:14:21.234482,-5050,1713,-8056,5016,-672,7745,-7814,12378,2449,8189,7786,4781
2017-03-09 18:14:21.234936,-2438,1713,2240,5016,-4397,3806,-2171,12378,-6189,8189,4860,4781
2017-03-09 18:14:21.254032,-2438,1713,2240,5016,-4397,3806,-2171,12378,-6189,8189,4860,4781
2017-03-09 18:14:21.254186,-2438,1713,2240,5016,-4397,3806,-2171,12378,-6189,8189,4860,4781
2017-03-09 18:14:21.266936,-2438,1713,2240,5016,-4397,3806,-2171,12378,-6189,8189,4860,4781
2017-03-09 18:14:21.282338,7968,1713,4766,5016,-3369,3806,-920,12378,6456,8189,2625,4781
2017-03-09 18:14:21.309483,7968,1713,4766,5016,-3369,3806,-920,12378,6456,8189,2625,4781
2017-03-09 18:14:21.322334,-2201,1713,5371,5016,-3259,3806,-6351,12378,5738,8189,1839,4781
2017-03-09 18:14:21.345463,5675,1713,-6877,8883,-2625,3806,-4762,12378,-1269,8189,2674,4781
2017-03-09 18:14:21.345619,5675,1713,-6877,8883,-2625,3806,-4762,12378,-1269,8189,2674,4781
2017-03-09 18:14:21.356035,5675,1713,-6877,8883,-2625,3806,-4762,12378,-1269,8189,2674,4781
2017-03-09 18:14:21.376035,5675,1713,-6877,8883,-2625,3806,-4762,12378,-1269,8189,2674,4781
2017-03-09 18:14:21.376154,-3169,1713,-283,8883,-1511,3806,7250,12378,7543,8189,-587,4781
2017-03-09 18:14:21.398600,-3169,1713,-283,8883,-1511,3806,7250,12378,7543,8189,-587,4781
2017-03-09 18:14:21.417926,-3169,1713,-283,8883,-1511,3806,7250,12378,7543,8189,-587,4781
2017-03-09 18:14:21.418103,-3169,1713,-283,8883,-1511,3806,7250,12378,7543,8189,-587,4781
2017-03-09 18:14:21.431905,-3169,1713,-283,8883,-1511,3806,7250,12378,7543,8189,-587,4781
2017-03-09 18:14:21.453775,-3169,1713,-283,8883,-1511,3806,7250,12378,7543,8189,-587,4781
2017-03-09 18:14:21.458887,3421,1713,8168,8883,-5605,3806,3434,12378,1392,8189,7110,4781
2017-03-09 18:14:21.470726,3421,1713,8168,8883,-5605,3806,3434,12378,1392,8189,7110,4781
2017-03-09 18:14:21.481737,3421,1713,8168,8883,-5605,3806,3434,12378,1392,8189,7110,4781
2017-03-09 18:14:21.499833,3421,1713,8168,8883,-5605,3806,3434,12378,1392,8189,7110,4781
2017-03-09 18:14:21.535532,3421,1713,8168,8883,-5605,3806,3434,12378,1392,8189,7110,4781
2017-03-09 18:14:21.535693,-5842,1713,6162,8659,-6200,3806,1208,12378,-6677,8189,1475,4781
2017-03-09 18:14:21.553396,-5842,1713,6162,8659,-6200,3806,1208,12378,-6677,8189,1475,4781
2017-03-09 18:14:21.562673,-5842,1713,6162,8659,-6200,3806,1208,12378,-6677,8189,1475,4781
2017-03-09 18:14:21.578681,-5842,1713,6162,8659,-6200,3806,1208,12378,-6677,8189,1475,4781
2017-03-09 18:14:21.578854,-7211,1713,238,8659,6331,3806,-7536,12378,-2385,8189,-2598,4781
2017-03-09 18:14:21.593813,-7211,1713,238,8659,6331,3806,-7536,12378,-2385,8189,-2598,4781
2017-03-09 18:14:21.610698,-7211,1713,238,8659,6331,3806,-7536,12378,-2385,8189,-2598,4781
2017-03-09 18:14:21.610854,-7211,1713,238,8659,6331,3806,-7536,12378,-2385,8189,-2598,4781
2017-03-09 18:14:21.645525,-3001,1713,-7515,8659,3701,3806,-4613,12378,-5172,8189,-5831,4781
2017-03-09 18:14:21.645675,-3001,1713,-7515,8659,3701,3806,-4613,12378,-5172,8189,-5831,4781
2017-03-09 18:14:21.645809,7932,1713,4342,8659,-1050,3806,-4151,12378,-5471,8189,-5004,4781
2017-03-09 18:14:21.645945,7932,1713,4342,8659,-1050,3806,-4151,12378,-5471,8189,-5004,4781
2017-03-09 18:14:21.677703,7932,1713,4342,8659,-1050,3806,-4151,12378,-5471,8189,-5004,4781
2017-03-09 18:14:21.677869,7932,1713,4342,8659,-1050,3806,-4151,12378,-5471,8189,-5004,4781
2017-03-09 18:14:21.699649,7932,1713,4342,8659,-1050,3806,-4151,12378,-5471,8189,-5004,4781
2017-03-09 18:14:21.706648,7932,1713,4342,8659,-1050,3806,-4151,12378,-5471,8189,-5004,4781
2017-03-09 18:14:21.737067,5350,1713,89,8659,-2370,3806,-2524,12378,1511,8189,2591,4781
2017-03-09 18:14:21.742835,5350,1713,89,8659,-2370,3806,-2524,12378,1511,8189,2591,4781
2017-03-09 18:14:21.752253,-1616,1713,7934,8659,-5394,3806,-6815,12378,3659,8189,5357,4781
2017-03-09 18:14:21.779141,-1616,1713,7934,8659,-5394,3806,-6815,12378,3659,8189,5357,4781
2017-03-09 18:14:21.779315,-1616,1713,7934,8659,-5394,3806,-6815,12378,3659,8189,5357,4781
2017-03-09 18:14:21.821644,-1616,1713,7934,8659,-5394,3806,-6815,12378,3659,8189,5357,4781
2017-03-09 18:14:21.821803,-1616,1713,7934,8659,-5394,3806,-6815,12378,3659,8189,5357,4781
2017-03-09 18:14:21.834672,-1616,1713,7934,8659,-5394,3806,-6815,12378,3659,8189,5357,4781
2017-03-09 18:14:21.836449,-1616,1713,7934,8659,-5394,3806,-6815,12378,3659,8189,5357,4781
2017-03-09 18:14:21.849734,-1616,1713,7934,8659,-5394,3806,-6815,12378,3659,8189,5357,4781
2017-03-09 18:14:21.861284,-1616,1713,7934,8659,-5394,3806,-6815,12378,3659,8189,5357,4781
2017-03-09 18:14:21.877023,868,1713,3282,8659,6446,3806,-1298,12378,7600,8189,-5320,4781
2017-03-09 18:14:21.884110,868,1713,3282,8659,6446,3806,-1298,12378,7600,8189,-5320,4781
2017-03-09 18:14:21.897743,1832,1713,514,8659,544,3806,5366,12378,-1777,8189,3074,4781
2017-03-09 18:14:21.915573,1832,1713,514,8659,544,3806,5366,12378,-1777,8189,3074,4781
2017-03-09 18:14:21.915752,1832,1713,514,8659,544,3806,5366,12378,-1777,8189,3074,4781
2017-03-09 18:14:21.935421,-471,1713,7707,8659,490,3806,6237,13304,-5271,8189,-2372,4781
2017-03-09 18:14:21.940954,-4817,1713,-4029,8659,1330,3806,-4030,13304,2537,8189,-1813,4781
2017-03-09 18:14:21.964368,-4817,1713,-4029,8659,1330,3806,-4030,13304,2537,8189,-1813,4781
2017-03-09 18:14:21.964519,-4817,1713,-4029,8659,1330,3806,-4030,13304,2537,8189,-1813,4781
2017-03-09 18:14:21.973111,-4817,1713,-4029,8659,1330,3806,-4030,13304,2537,8189,-1813,4781
2017-03-09 18:14:22.001780,-4817,1713,-4029,8659,1330,3806,-4030,13304,2537,8189,-1813,4781
2017-03-09 18:14:22.001979,-5456,1713,3637,8659,5085,3806,1655,13304,-8182,8189,7380,4781
2017-03-09 18:14:22.021251,-5456,1713,3637,8659,5085,3806,1655,13304,-8182,8189,7380,4781
2017-03-09 18:14:22.043036,-5456,1713,3637,8659,5085,3806,1655,13304,-8182,8189,7380,4781
2017-03-09 18:14:22.063847,-6943,1713,3855,8659,-8160,3806,-3244,13304,-2093,8189,-6353,10996
2017-03-09 18:14:22.068076,-6943,1713,3855,8659,-8160,3806,-3244,13304,-2093,8189,-6353,10996
2017-03-09 18:14:22.093397,-6943,1713,3855,8659,-8160,3806,-3244,13304,-2093,8189,-6353,10996
2017-03-09 18:14:22.093420,-6943,1713,3855,8659,-8160,3806,-3244,13304,-2093,8189,-6353,10996
2017-03-09 18:14:22.116423,-6943,1713,3855,8659,-8160,3806,-3244,13304,-2093,8189,-6353,10996
2017-03-09 18:14:22.126588,-6943,1713,3855,8659,-8160,3806,-3244,13304,-2093,8189,-6353,10996
2017-03-09 18:14:22.152286,-6943,1713,3855,8659,-8160,3806,-3244,13304,-2093,8189,-6353,10996
2017-03-09 18:14:22.178476,-6943,1713,3855,8659,-8160,3806,-3244,13304,-2093,8189,-6353,10996
2017-03-09 18:14:22.190466,-6943,1713,3855,8659,-8160,3806,-3244,13304,-2093,8189,-6353,10996
2017-03-09 18:14:22.206361,-7475,1713,7176,8659,-7611,12370,7402,13304,6460,8189,-2036,10996
2017-03-09 18:14:22.206522,-7475,1713,7176,8659,-7611,12370,7402,13304,6460,8189,-2036,10996
2017-03-09 18:14:22.213218,-7475,1713,7176,8659,-7611,12370,7402,13304,6460,8189,-2036,10996
2017-03-09 18:14:22.240373,-7475,1713,7176,8659,-7611,12370,7402,13304,6460,8189,-2036,10996
2017-03-09 18:14:22.249631,-7475,1713,7176,8659,-7611,12370,7402,13304,6460,8189,-2036,10996
2017-03-09 18:14:22.263449,3649,1713,142,8659,-2030,12370,803,13304,7822,8189,5572,10996
2017-03-09 18:14:22.277751,3649,1713,142,8659,-2030,12370,803,13304,7822,8189,5572,10996
2017-03-09 18:14:22.283743,7370,1713,-7261,8659,4272,12370,-4809,13304,-3765,8189,6950,10996
2017-03-09 18:14:22.304141,7370,1713,-7261,8659,4272,12370,-4809,13304,-3765,8189,6950,10996
2017-03-09 18:14:22.314807,7370,1713,-7261,8659,4272,12370,-4809,13304,-3765,8189,6950,10996
2017-03-09 18:14:22.344337,7370,1713,-7261,8659,4272,12370,-4809,13304,-3765,8189,6950,10996
2017-03-09 18:14:22.362211,7370,1713,-7261,8659,4272,12370,-4809,13304,-3765,8189,6950,10996
2017-03-09 18:14:22.375995,879,1713,1444,8659,-6742,12370,-2641,13304,5633,8189,-3381,10892
2017-03-09 18:14:22.385525,879,1713,1444,8659,-6742,12370,-2641,13304,5633,8189,-3381,10892
2017-03-09 18:14:22.400514,879,1713,1444,8659,-6742,12370,-2641,13304,5633,8189,-3381,10892
2017-03-09 18:14:22.437595,879,1713,1444,8659,-6742,12370,-2641,13304,5633,8189,-3381,10892
2017-03-09 18:14:22.446019,879,1713,1444,8659,-6742,12370,-2641,13304,5633,8189,-3381,10892
2017-03-09 18:14:22.469200,879,1713,1444,8659,-6742,12370,-2641,13304,5633,8189,-3381,10892
2017-03-09 18:14:22.469378,7843,1713,7779,8659,-2343,12370,7331,13304,4814,8189,6968,10892
2017-03-09 18:14:22.488636,7843,1713,7779,8659,-2343,12370,7331,13304,4814,8189,6968,10892
2017-03-09 18:14:22.510726,7843,1713,7779,8659,-2343,12370,7331,13304,4814,8189,6968,10892
2017-03-09 18:14:22.526505,7843,1713,7779,8659,-2343,12370,7331,13304,4814,8189,6968,10892
2017-03-09 18:14:22.526856,7843,1713,7779,8659,-2343,12370,7331,13304,4814,8189,6968,10892
2017-03-09 18:14:22.547708,2225,1713,4029,3640,6408,12370,-4326,13304,-1494,8189,-1056,10892
2017-03-09 18:14:22.560167,2225,1713,4029,3640,6408,12370,-4326,13304,-1494,8189,-1056,10892
2017-03-09 18:14:22.589649,2225,1713,4029,3640,6408,12370,-4326,13304,-1494,8189,-1056,10892
2017-03-09 18:14:22.589818,2225,1713,4029,3640,6408,12370,-4326,13304,-1494,8189,-1056,10892
2017-03-09 18:14:22.589950,2225,1713,4029,3640,6408,12370,-4326,13304,-1494,8189,-1056,10892
2017-03-09 18:14:22.603572,-6643,1713,-6639,3640,3038,12370,2196,13304,5806,8189,-1318,10892
2017-03-09 18:14:22.614112,6325,1713,-5938,6734,5810,12370,-2971,7718,309,8189,2168,10892
2017-03-09 18:14:22.625881,6325,1713,-5938,6734,5810,12370,-2971,7718,309,8189,2168,10892
2017-03-09 18:14:22.635704,6325,1713,-5938,6734,5810,12370,-2971,7718,309,8189,2168,10892
2017-03-09 18:14:22.647269,6325,1713,-5938,6734,5810,12370,-2971,7718,309,8189,2168,10892
2017-03-09 18:14:22.671986,6325,1713,-5938,6734,5810,12370,-2971,7718,309,8189,2168,10892
2017-03-09 18:14:22.672281,-4550,1713,-5952,6734,-7927,16306,-427,7718,-2619,8189,-7456,10892
2017-03-09 18:14:22.685772,-4550,1713,-5952,6734,-7927,16306,-427,7718,-2619,8189,-7456,10892
2017-03-09 18:14:22.699239,-7239,1713,515,6734,160,16306,-6749,7718,3646,8189,6777,10892
2017-03-09 18:14:22.706421,-7239,1713,515,6734,160,16306,-6749,7718,3646,8189,6777,10892
2017-03-09 18:14:22.746789,-7239,1713,515,6734,160,16306,-6749,7718,3646,8189,6777,10892
2017-03-09 18:14:22.762958,-6806,1713,5582,6734,3680,16306,5392,7718,1034,8189,5089,10892
2017-03-09 18:14:22.788006,780,1713,5548,6734,-1140,16306,-688,7718,5092,8189,-8106,11770
2017-03-09 18:14:22.788190,-867,1713,6570,6734,4688,16306,-7139,7718,6717,8189,398,11770
2017-03-09 18:14:22.803864,-8142,1713,6016,6734,-4181,16306,2139,7718,-4619,8189,-2987,11770
2017-03-09 18:14:22.821079,-8142,1713,6016,6734,-4181,16306,2139,7718,-4619,8189,-2987,11770
2017-03-09 18:14:22.826549,-8142,1713,6016,6734,-4181,16306,2139,7718,-4619,8189,-2987,11770
2017-03-09 18:14:22.841649,7634,1713,-1153,6734,947,16306,-718,7718,3369,8189,-3550,4210
2017-03-09 18:14:22.850944,7634,1713,-1153,6734,947,16306,-718,7718,3369,8189,-3550,4210
2017-03-09 18:14:22.865225,7634,1713,-1153,6734,947,16306,-718,7718,3369,8189,-3550,4210
2017-03-09 18:14:22.881588,-752,1713,6467,6734,3021,16306,5683,7718,459,8189,-2745,4210
2017-03-09 18:14:22.909702,-752,1713,6467,6734,3021,16306,5683,7718,459,8189,-2745,4210
2017-03-09 18:14:22.918094,-752,1713,6467,6734,3021,16306,5683,7718,459,8189,-2745,4210
2017-03-09 18:14:22.942679,-752,1713,6467,6734,3021,16306,5683,7718,459,8189,-2745,4210
2017-03-09 18:14:22.942830,6870,1713,-5568,6734,8086,16306,1446,7718,-3056,8189,-4956,1875
2017-03-09 18:14:22.970925,6870,1713,-5568,6734,8086,16306,1446,7718,-3056,8189,-4956,1875
2017-03-09 18:14:22.971088,240,1713,6149,6734,2212,16306,-1518,7718,-5547,8189,1630,1875
2017-03-09 18:14:22.987875,240,1713,6149,6734,2212,16306,-1518,7718,-5547,8189,1630,1875
2017-03-09 18:14:23.008384,240,1713,6149,6734,2212,16306,-1518,7718,-5547,8189,1630,1875
2017-03-09 18:14:23.039299,240,1713,6149,6734,2212,16306,-1518,7718,-5547,8189,1630,1875
2017-03-09 18:14:23.039449,240,1713,6149,6734,2212,16306,-1518,7718,-5547,8189,1630,1875
2017-03-09 18:14:23.060935,-2826,1713,-4566,6734,2896,16306,6244,7718,166,13166,-347,11469
2017-03-09 18:14:23.061109,-2826,1713,-4566,6734,2896,16306,6244,7718,166,13166,-347,11469
2017-03-09 18:14:23.074974,-2826,1713,-4566,6734,2896,16306,6244,7718,166,13166,-347,11469
2017-03-09 18:14:23.097058,-2826,1713,-4566,6734,2896,16306,6244,7718,166,13166,-347,11469
2017-03-09 18:14:23.114499,5842,1713,-3963,6734,-3051,16306,5249,7718,3225,13166,3920,11469
2017-03-09 18:14:23.118909,5842,1713,-3963,6734,-3051,16306,5249,7718,3225,13166,3920,11469
2017-03-09 18:14:23.124149,5842,1713,-3963,6734,-3051,16306,5249,7718,3225,13166,3920,11469
2017-03-09 18:14:23.142423,7814,1713,-7785,6734,3675,16306,5327,7718,-3277,13166,-3917,11469
2017-03-09 18:14:23.156592,7814,1713,-7785,6734,3675,16306,5327,7718,-3277,13166,-3917,11469
2017-03-09 18:14:23.177560,7814,1713,-7785,6734,3675,16306,5327,7718,-3277,13166,-3917,11469
2017-03-09 18:14:23.194164,7814,1713,-7785,6734,3675,16306,5327,7718,-3277,13166,-3917,11469
2017-03-09 18:14:23.209642,7814,1713,-7785,6734,3675,16306,5327,7718,-3277,13166,-3917,11469
2017-03-09 18:14:23.209801,7814,1713,-7785,6734,3675,16306,5327,7718,-3277,13166,-3917,11469
2017-03-09 18:14:23.233245,-5894,1713,-1970,6734,3065,16306,-4259,7718,7955,13166,7541,11469
2017-03-09 18:14:23.233432,-5894,1713,-1970,6734,3065,16306,-4259,7718,7955,13166,7541,11469
2017-03-09 18:14:23.259113,-5894,1713,-1970,6734,3065,16306,-4259,7718,7955,13166,7541,11469
2017-03-09 18:14:23.272296,-5894,1713,-1970,6734,3065,16306,-4259,7718,7955,13166,7541,11469
2017-03-09 18:14:23.293720,2070,1713,936,6734,-19,16306,-1399,7718,401,13166,119,11469
2017-03-09 18:14:23.293876,2070,1713,936,6734,-19,16306,-1399,7718,401,13166,119,11469
2017-03-09 18:14:23.306771,2070,1713,936,6734,-19,16306,-1399,7718,401,13166,119,11469
2017-03-09 18:14:23.336646,2070,1713,936,6734,-19,16306,-1399,7718,401,13166,119,11469
2017-03-09 18:14:23.337538,2070,1713,936,6734,-19,16306,-1399,7718,401,13166,119,11469
2017-03-09 18:14:23.357762,2070,1713,936,6734,-19,16306,-1399,7718,401,13166,119,11469
2017-03-09 18:14:23.364320,2070,1713,936,6734,-19,16306,-1399,7718,401,13166,119,11469
2017-03-09 18:14:23.368190,2070,1713,936,6734,-19,16306,-1399,7718,401,13166,119,11469
2017-03-09 18:14:23.387747,2070,1713,936,6734,-19,16306,-1399,7718,401,13166,119,11469
2017-03-09 18:14:23.412145,2070,1713,936,6734,-19,16306,-1399,7718,401,13166,119,11469
2017-03-09 18:14:23.412306,-2246,1713,-6703,6734,-4265,16306,6804,7718,-2954,13166,6014,11469
2017-03-09 18:14:23.434046,5924,1713,-4743,6734,7295,16306,4851,7718,806,13166,3422,11469
2017-03-09 18:14:23.456258,5924,1713,-4743,6734,7295,16306,4851,7718,806,13166,3422,11469
2017-03-09 18:14:23.471773,5924,1713,-4743,6734,7295,16306,4851,7718,806,13166,3422,11469
2017-03-09 18:14:23.485368,494,1713,-5682,6734,-2428,16306,1812,7718,-5515,13166,-6484,11469
2017-03-09 18:14:23.501855,494,1713,-5682,6734,-2428,16306,1812,7718,-5515,13166,-6484,11469
2017-03-09 18:14:23.501864,750,1713,1597,6734,-2917,16306,7799,7718,-2423,13166,-3708,11469
2017-03-09 18:14:23.529549,4890,1713,1200,6734,4106,16306,6256,7718,2305,13166,5762,11469
2017-03-09 18:14:23.529722,4890,1713,1200,6734,4106,16306,6256,7718,2305,13166,5762,11469
2017-03-09 18:14:23.536429,4890,1713,1200,6734,4106,16306,6256,7718,2305,13166,5762,11469
2017-03-09 18:14:23.557223,4890,1713,1200,6734,4106,16306,6256,7718,2305,13166,5762,11469
2017-03-09 18:14:23.561915,4890,1713,1200,6734,4106,16306,6256,7718,2305,13166,5762,11469
2017-03-09 18:14:23.586090,-4299,1713,256,6734,2093,16306,7316,7718,4957,13166,-7001,11469
2017-03-09 18:14:23.586241,-4299,1713,256,6734,2093,16306,7316,7718,4957,13166,-7001,11469
2017-03-09 18:14:23.600725,-4299,1713,256,6734,2093,16306,7316,7718,4957,13166,-7001,11469
2017-03-09 18:14:23.630678,-4299,1713,256,6734,2093,16306,7316,7718,4957,13166,-7001,11469
2017-03-09 18:14:23.630837,3068,1713,3894,6734,-7446,16306,-3212,7718,6085,13166,-2376,11469
2017-03-09 18:14:23.630968,3068,1713,3894,6734,-7446,16306,-3212,7718,6085,13166,-2376,11469
2017-03-09 18:14:23.653551,2041,1713,1490,6734,5834,16306,6791,7718,-2531,13166,2003,11469
2017-03-09 18:14:23.661483,2041,1713,1490,6734,5834,16306,6791,7718,-2531,13166,2003,11469
2017-03-09 18:14:23.679502,2041,1713,1490,6734,5834,16306,6791,7718,-2531,13166,2003,11469
2017-03-09 18:14:23.698569,2041,1713,1490,6734,5834,16306,6791,7718,-2531,13166,2003,11469
2017-03-09 18:14:23.722184,-3301,1713,-2469,6734,3211,16306,-3789,7718,-7489,13166,-4115,11469
2017-03-09 18:14:23.738937,-3301,1713,-2469,6734,3211,16306,-3789,7718,-7489,13166,-4115,11469
2017-03-09 18:14:23.758996,5424,12534,-1479,6734,199,16306,3366,7718,-1256,13166,-4501,11469
2017-03-09 18:14:23.773988,5424,12534,-1479,6734,199,16306,3366,7718,-1256,13166,-4501,11469
2017-03-09 18:14:23.774142,5424,12534,-1479,6734,199,16306,3366,7718,-1256,13166,-4501,11469
2017-03-09 18:14:23.800402,5424,12534,-1479,6734,199,16306,3366,7718,-1256,13166,-4501,11469
2017-03-09 18:14:23.833262,5424,12534,-1479,6734,199,16306,3366,7718,-1256,13166,-4501,11469
2017-03-09 18:14:23.853794,5424,12534,-1479,6734,199,16306,3366,7718,-1256,13166,-4501,11469
2017-03-09 18:14:23.853931,7312,12534,5983,6734,3964,16306,-3567,7718,4070,13166,-5267,11469
2017-03-09 18:14:23.858873,7312,12534,5983,6734,3964,16306,-3567,7718,4070,13166,-5267,11469
2017-03-09 18:14:23.872070,7312,12534,5983,6734,3964,16306,-3567,7718,4070,13166,-5267,11469
2017-03-09 18:14:23.895767,-2257,12534,-301,6734,2148,16306,3147,7718,-1881,13166,7371,11469
2017-03-09 18:14:23.895867,-2257,12534,-301,6734,2148,16306,3147,7718,-1881,13166,7371,11469
2017-03-09 18:14:23.910082,-2257,12534,-301,6734,2148,16306,3147,7718,-1881,13166,7371,11469
2017-03-09 18:14:23.933674,-7321,12534,546,6734,-7086,16306,6931,7718,-1480,13166,4336,11883
2017-03-09 18:14:23.961563,-7321,12534,546,6734,-7086,16306,6931,7718,-1480,13166,4336,11883
2017-03-09 18:14:23.961730,-7321,12534,546,6734,-7086,16306,6931,7718,-1480,13166,4336,11883
2017-03-09 18:14:23.961864,-7321,12534,546,6734,-7086,16306,6931,7718,-1480,13166,4336,11883
2017-03-09 18:14:23.978715,7332,12534,-6638,6734,7357,16306,266,7718,5815,13166,-5572,11883
2017-03-09 18:14:23.993152,7332,12534,-6638,6734,7357,16306,266,7718,5815,13166,-5572,11883
2017-03-09 18:14:23.993197,7332,12534,-6638,6734,7357,16306,266,7718,5815,13166,-5572,11883
2017-03-09 18:14:24.021118,7332,12534,-6638,6734,7357,16306,266,7718,5815,13166,-5572,11883
2017-03-09 18:14:24.021281,7332,12534,-6638,6734,7357,16306,266,7718,5815,13166,-5572,11883
2017-03-09 18:14:24.041472,7023,12534,3040,6734,3316,16306,-7313,2908,5888,13166,-218,11883
2017-03-09 18:14:24.061605,7023,12534,3040,6734,3316,16306,-7313,2908,5888,13166,-218,11883
2017-03-09 18:14:24.074887,7023,12534,3040,6734,3316,16306,-7313,2908,5888,13166,-218,11883
2017-03-09 18:14:24.087864,7023,12534,3040,6734,3316,16306,-7313,2908,5888,13166,-218,11883
2017-03-09 18:14:24.098199,7023,12534,3040,6734,3316,16306,-7313,2908,5888,13166,-218,11883
2017-03-09 18:14:24.116998,-8162,12534,-7003,6734,-6411,16306,6269,2908,293,13166,-3021,11883
2017-03-09 18:14:24.117159,-8162,12534,-7003,6734,-6411,16306,6269,2908,293,13166,-3021,11883
2017-03-09 18:14:24.123850,-8162,12534,-7003,6734,-6411,16306,6269,2908,293,13166,-3021,11883
2017-03-09 18:14:24.141407,-5624,12534,-3895,6734,-7950,16306,-7233,2908,-3345,13166,-1923,11883
2017-03-09 18:14:24.151797,-5624,12534,-3895,6734,-7950,16306,-7233,2908,-3345,13166,-1923,11883
2017-03-09 18:14:24.161010,-5624,12534,-3895,6734,-7950,16306,-7233,2908,-3345,13166,-1923,11883
2017-03-09 18:14:24.172856,1672,12534,-2136,6734,1489,16306,-1206,2908,-3600,13166,4762,11883
2017-03-09 18:14:24.190673,1672,12534,-2136,6734,1489,16306,-1206,2908,-3600,13166,4762,11883
2017-03-09 18:14:24.190835,-5834,12534,203,6734,-7616,16306,83,2908,-3337,13166,1991,11883
2017-03-09 18:14:24.206148,-5834,12534,203,6734,-7616,16306,83,2908,-3337,13166,1991,11883
2017-03-09 18:14:24.206321,-5834,12534,203,6734,-7616,16306,83,2908,-3337,13166,1991,11883
2017-03-09 18:14:24.258488,-6331,12534,-5041,6734,-7752,16306,2573,2908,-4695,13166,619,11883
2017-03-09 18:14:24.258968,4403,12534,2625,6734,-5278,16306,-5822,2908,-7153,12174,-176,11883
2017-03-09 18:14:24.259005,4403,12534,2625,6734,-5278,16306,-5822,2908,-7153,12174,-176,11883
2017-03-09 18:14:24.259040,4403,12534,2625,6734,-5278,16306,-5822,2908,-7153,12174,-176,11883
2017-03-09 18:14:24.265928,4403,12534,2625,6734,-5278,16306,-5822,2908,-7153,12174,-176,11883
2017-03-09 18:14:24.271148,-289,12534,1404,6734,-3356,16306,-5326,2908,4998,12174,6312,11883
2017-03-09 18:14:24.292378,-289,12534,1404,6734,-3356,16306,-5326,2908,4998,12174,6312,11883
2017-03-09 18:14:24.315698,-4779,12534,4540,6734,6928,16306,7236,2908,3168,12174,2525,11883
2017-03-09 18:14:24.315879,-4779,12534,4540,6734,6928,16306,7236,2908,3168,12174,2525,11883
2017-03-09 18:14:24.328821,-4779,12534,4540,6734,6928,16306,7236,2908,3168,12174,2525,11883
2017-03-09 18:14:24.355809,-4779,12534,4540,6734,6928,16306,7236,2908,3168,12174,2525,11883
2017-03-09 18:14:24.371127,537,12534,-183,6734,-1492,16306,6762,2908,4067,12174,1523,11883
2017-03-09 18:14:24.381722,-7005,12534,6820,6734,-4838,16306,-3626,2908,388,12174,-5339,11883
2017-03-09 18:14:24.381890,-7005,12534,6820,6734,-4838,16306,-3626,2908,388,12174,-5339,11883
2017-03-09 18:14:24.395329,-2967,12534,3716,6734,-7844,16306,7682,2908,2212,12174,2790,11883
2017-03-09 18:14:24.395490,-6015,12534,5814,6734,-150,16306,4718,2908,-1353,12174,-5105,11883
2017-03-09 18:14:24.411815,-6015,12534,5814,6734,-150,16306,4718,2908,-1353,12174,-5105,11883
2017-03-09 18:14:24.422007,-6015,12534,5814,6734,-150,16306,4718,2908,-1353,12174,-5105,11883
2017-03-09 18:14:24.432939,-6015,12534,5814,6734,-150,16306,4718,2908,-1353,12174,-5105,11883
2017-03-09 18:14:24.460075,-1137,12534,5544,6734,7959,16306,5558,2908,4906,12174,-2843,11883
2017-03-09 18:14:24.475001,-1137,12534,5544,6734,7959,16306,5558,2908,4906,12174,-2843,11883
2017-03-09 18:14:24.489612,-6570,4992,-6502,6734,-3868,16306,5266,2908,-253,12174,-6038,11883
2017-03-09 18:14:24.500440,-6570,4992,-6502,6734,-3868,16306,5266,2908,-253,12174,-6038,11883
2017-03-09 18:14:24.515400,3403,4992,5282,6734,-6905,16306,-6571,2908,7314,12174,2115,11883
2017-03-09 18:14:24.534281,-1317,4992,-2145,6734,-7324,16306,5778,2908,8039,12174,1890,11883
2017-03-09 18:14:24.534684,-1317,4992,-2145,6734,-7324,16306,5778,2908,8039,12174,1890,11883
2017-03-09 18:14:24.552211,-1317,4992,-2145,6734,-7324,16306,5778,2908,8039,12174,1890,11883
2017-03-09 18:14:24.578936,1944,4992,-2022,6734,8173,16306,2464,2908,970,12174,-6587,11883
2017-03-09 18:14:24.591183,1944,4992,-2022,6734,8173,16306,2464,2908,970,12174,-6587,11883
2017-03-09 18:14:24.601093,1944,4992,-2022,6734,8173,16306,2464,2908,970,12174,-6587,11883
2017-03-09 18:14:24.619010,4505,4992,1620,6734,-6434,16306,-2659,2908,1644,12174,7833,11883
2017-03-09 18:14:24.619142,4505,4992,1620,6734,-6434,16306,-2659,2908,1644,12174,7833,11883
2017-03-09 18:14:24.638359,4505,4992,1620,6734,-6434,16306,-2659,2908,1644,12174,7833,11883
2017-03-09 18:14:24.638422,4505,4992,1620,6734,-6434,16306,-2659,2908,1644,12174,7833,11883
2017-03-09 18:14:24.663622,4505,4992,1620,6734,-6434,16306,-2659,2908,1644,12174,7833,11883
2017-03-09 18:14:24.677520,2293,4992,7881,6734,-2189,16306,-7830,2908,7241,12174,-4532,11883
2017-03-09 18:14:24.689965,2293,4992,7881,6734,-2189,16306,-7830,2908,7241,12174,-4532,11883
2017-03-09 18:14:24.690141,2293,4992,7881,6734,-2189,16306,-7830,2908,7241,12174,-4532,11883
2017-03-09 18:14:24.720403,2293,4992,7881,6734,-2189,16306,-7830,2908,7241,12174,-4532,11883
2017-03-09 18:14:24.720799,-4024,4992,-1596,6091,8042,16306,3558,2908,-1475,12174,5148,11883
2017-03-09 18:14:24.741990,-4024,4992,-1596,6091,8042,16306,3558,2908,-1475,12174,5148,11883
2017-03-09 18:14:24.752816,-4024,4992,-1596,6091,8042,16306,3558,2908,-1475,12174,5148,11883
2017-03-09 18:14:24.767771,-4024,4992,-1596,6091,8042,16306,3558,2908,-1475,12174,5148,11883
2017-03-09 18:14:24.778189,2804,4992,-470,6091,-4089,16306,1595,2908,-1860,12174,-7716,11883
2017-03-09 18:14:24.799404,-7356,4992,-92,6091,5111,16306,5508,2908,-1533,12174,7846,11883
2017-03-09 18:14:24.799595,4403,4992,7811,6091,6389,16306,-5131,2908,1893,12174,7940,11883
2017-03-09 18:14:24.826694,4403,4992,7811,6091,6389,16306,-5131,2908,1893,12174,7940,11883
2017-03-09 18:14:24.826886,1204,4992,7510,6091,7961,16306,-6750,2908,4369,12174,-846,11883
2017-03-09 18:14:24.849073,1204,4992,7510,6091,7961,16306,-6750,2908,4369,12174,-846,11883
2017-03-09 18:14:24.867788,1204,4992,7510,6091,7961,16306,-6750,2908,4369,12174,-846,11883
2017-03-09 18:14:24.885034,1597,4992,-5019,6091,2110,16306,-1962,2908,2800,12174,2492,11883
2017-03-09 18:14:24.889958,-8182,4992,2420,6091,4999,16306,-6374,2908,624,12174,-7218,11883
2017-03-09 18:14:24.914690,-8182,4992,2420,6091,4999,16306,-6374,2908,624,12174,-7218,11883
2017-03-09 18:14:24.927699,-8182,4992,2420,6091,4999,16306,-6374,2908,624,12174,-7218,11883
2017-03-09 18:14:24.949622,-2063,4992,4835,6091,5872,16306,-7334,2908,-2921,12174,1387,11883
2017-03-09 18:14:24.949672,-2063,4992,4835,6091,5872,16306,-7334,2908,-2921,12174,1387,11883
2017-03-09 18:14:24.977252,-2063,4992,4835,6091,5872,16306,-7334,2908,-2921,12174,1387,11883
2017-03-09 18:14:24.977592,3479,4992,5457,6091,-2903,13578,518,2908,5069,8500,-4879,11883
2017-03-09 18:14:24.977751,3479,4992,5457,6091,-2903,13578,518,2908,5069,8500,-4879,11883
2017-03-09 18:14:24.993980,3479,4992,5457,6091,-2903,13578,518,2908,5069,8500,-4879,11883
2017-03-09 18:14:25.017864,3479,4992,5457,6091,-2903,13578,518,2908,5069,8500,-4879,11883
2017-03-09 18:14:25.026042,3479,4992,5457,6091,-2903,13578,518,2908,5069,8500,-4879,11883
2017-03-09 18:14:25.037411,3479,4992,5457,6091,-2903,13578,518,2908,5069,8500,-4879,11883
2017-03-09 18:14:25.060530,3479,4992,5457,6091,-2903,13578,518,2908,5069,8500,-4879,11883
2017-03-09 18:14:25.075490,3479,4992,5457,6091,-2903,13578,518,2908,5069,8500,-4879,11883
2017-03-09 18:14:25.097172,3479,4992,5457,6091,-2903,13578,518,2908,5069,8500,-4879,11883
2017-03-09 18:14:25.097323,3479,4992,5457,6091,-2903,13578,518,2908,5069,8500,-4879,11883
2017-03-09 18:14:25.110206,3479,4992,5457,6091,-2903,13578,518,2908,5069,8500,-4879,11883
2017-03-09 18:14:25.116219,4574,4992,340,6091,1125,13578,-4729,2908,1473,8500,-1454,11883
2017-03-09 18:14:25.149918,4574,4992,340,6091,1125,13578,-4729,2908,1473,8500,-1454,11883
2017-03-09 18:14:25.166757,5227,4992,6691,6091,-1667,13578,1120,2908,-7367,8500,-3188,15199
2017-03-09 18:14:25.167066,5227,4992,6691,6091,-1667,13578,1120,2908,-7367,8500,-3188,15199
2017-03-09 18:14:25.197050,-468,4992,-1638,6091,-3385,13578,-4505,2908,-75,8500,-6668,15199
2017-03-09 18:14:25.197376,4439,4992,-3492,6091,3214,13578,7579,2908,-7506,8500,-7564,15199
2017-03-09 18:14:25.217765,4439,4992,-3492,6091,3214,13578,7579,2908,-7506,8500,-7564,15199
2017-03-09 18:14:25.217993,4439,4992,-3492,6091,3214,13578,7579,2908,-7506,8500,-7564,15199
2017-03-09 18:14:25.233641,5911,4992,-2160,6091,1516,13578,-675,2908,2374,8500,-4519,15199
2017-03-09 18:14:25.239587,5911,4992,-2160,6091,1516,13578,-675,2908,2374,8500,-4519,15199
2017-03-09 18:14:25.245881,5911,4992,-2160,6091,1516,13578,-675,2908,2374,8500,-4519,15199
2017-03-09 18:14:25.286864,5911,4992,-2160,6091,1516,13578,-675,2908,2374,8500,-4519,15199
2017-03-09 18:14:25.286874,-2487,4992,6714,6091,1251,13578,-2319,2908,-5474,8500,-4385,15199
2017-03-09 18:14:25.287014,-2487,4992,6714,6091,1251,13578,-2319,2908,-5474,8500,-4385,15199
2017-03-09 18:14:25.294146,6320,4992,5774,6091,561,13578,-917,2908,-5886,8500,1462,15199
2017-03-09 18:14:25.328547,6320,4992,5774,6091,561,13578,-917,2908,-5886,8500,1462,15199
2017-03-09 18:14:25.331207,6320,4992,5774,6091,561,13578,-917,2908,-5886,8500,1462,15199
2017-03-09 18:14:25.332117,6320,4992,5774,6091,561,13578,-917,2908,-5886,8500,1462,15199
2017-03-09 18:14:25.356437,6320,4992,5774,6091,561,13578,-917,2908,-5886,8500,1462,15199
2017-03-09 18:14:25.356680,1658,4992,-5927,6091,3496,13578,8191,2908,-7211,8500,7686,15199
2017-03-09 18:14:25.381296,1658,4992,-5927,6091,3496,13578,8191,2908,-7211,8500,7686,15199
2017-03-09 18:14:25.381303,1658,4992,-5927,6091,3496,13578,8191,2908,-7211,8500,7686,15199
2017-03-09 18:14:25.392896,1658,4992,-5927,6091,3496,13578,8191,2908,-7211,8500,7686,15199
2017-03-09 18:14:25.402184,1658,4992,-5927,6091,3496,13578,8191,2908,-7211,8500,7686,15199
2017-03-09 18:14:25.416919,1658,4992,-5927,6091,3496,13578,8191,2908,-7211,8500,7686,15199
2017-03-09 18:14:25.453646,1658,4992,-5927,6091,3496,13578,8191,2908,-7211,8500,7686,15199
2017-03-09 18:14:25.453834,-5862,4992,-4486,6091,8175,12545,2305,2908,5728,8500,-2140,15199
2017-03-09 18:14:25.453966,5185,4992,1105,6091,8175,12545,2305,2908,-4351,8500,1522,15199
2017-03-09 18:14:25.471301,5189,4992,-4600,6091,6201,12545,3586,2908,3169,8500,2654,15199
2017-03-09 18:14:25.500934,5189,4992,-4600,6091,6201,12545,3586,2908,3169,8500,2654,15199
2017-03-09 18:14:25.505215,5189,4992,-4600,6091,6201,12545,3586,2908,3169,8500,2654,15199
2017-03-09 18:14:25.517798,5189,4992,-4600,6091,6201,12545,3586,2908,3169,8500,2654,15199
2017-03-09 18:14:25.529738,-1829,4992,-2264,6091,7399,12545,4468,2908,4396,8500,-5008,15199
2017-03-09 18:14:25.545227,-1829,4992,-2264,6091,7399,12545,4468,2908,4396,8500,-5008,15199
2017-03-09 18:14:25.563240,-1829,4992,-2264,6091,7399,12545,4468,2908,4396,8500,-5008,15199
2017-03-09 18:14:25.563406,-1829,4992,-2264,6091,7399,12545,4468,2908,4396,8500,-5008,15199
2017-03-09 18:14:25.590728,-1829,4992,-2264,6091,7399,12545,4468,2908,4396,8500,-5008,15199
2017-03-09 18:14:25.590898,-7269,4992,5401,6091,-494,15423,-5135,2908,7709,8500,4149,15199
2017-03-09 18:14:25.602127,-7269,4992,5401,6091,-494,15423,-5135,2908,7709,8500,4149,15199
2017-03-09 18:14:25.631493,-7269,4992,5401,6091,-494,15423,-5135,2908,7709,8500,4149,15199
2017-03-09 18:14:25.631718,-7269,4992,5401,6091,-494,15423,-5135,2908,7709,8500,4149,15199
2017-03-09 18:14:25.645907,-7269,4992,5401,6091,-494,15423,-5135,2908,7709,8500,4149,15199
2017-03-09 18:14:25.652268,-7269,4992,5401,6091,-494,15423,-5135,2908,7709,8500,4149,15199
2017-03-09 18:14:25.658604,7624,4992,-6568,6091,-6189,15423,1507,2908,4346,8500,-279,15199
2017-03-09 18:14:25.679721,7624,4992,-6568,6091,-6189,15423,1507,2908,4346,8500,-279,15199
2017-03-09 18:14:25.683384,7624,4992,-6568,6091,-6189,15423,1507,2908,4346,8500,-279,15199
2017-03-09 18:14:25.759408,7624,4992,-6568,6091,-6189,15423,1507,2908,4346,8500,-279,15199
2017-03-09 18:14:25.759708,5451,4992,-4347,6091,466,15423,-5701,2908,3336,8500,1160,15199
2017-03-09 18:14:25.759712,5451,4992,-4347,6091,466,15423,-5701,2908,3336,8500,1160,15199
2017-03-09 18:14:25.760323,5451,4992,-4347,6091,466,15423,-5701,2908,3336,8500,1160,15199
2017-03-09 18:14:25.843037,5451,4992,-4347,6091,466,15423,-5701,2908,3336,8500,1160,15199
2017-03-09 18:14:25.843099,5451,4992,-4347,6091,466,15423,-5701,2908,3336,8500,1160,15199
2017-03-09 18:14:25.843136,5451,4992,-4347,6091,466,15423,-5701,2908,3336,8500,1160,15199
2017-03-09 18:14:25.843171,-4041,4992,5443,6091,2091,15423,6774,2908,-2986,8500,7331,15199
2017-03-09 18:14:25.843206,-4041,4992,5443,6091,2091,15423,6774,2908,-2986,8500,7331,15199
2017-03-09 18:14:25.843240,-4041,4992,5443,6091,2091,15423,6774,2908,-2986,8500,7331,15199
2017-03-09 18:14:25.843274,-4041,4992,5443,6091,2091,15423,6774,2908,-2986,8500,7331,15199
2017-03-09 18:14:25.843307,4171,4992,-2439,6091,138,15423,4740,2908,-2887,8500,-3684,15199
2017-03-09 18:14:25.843341,1416,4992,-3644,6091,138,15423,4740,2908,693,8500,3342,15199
2017-03-09 18:14:25.859063,2819,4992,2445,6091,-2245,15423,-7069,2908,559,8500,-4755,15199
2017-03-09 18:14:25.875413,2819,4992,2445,6091,-2245,15423,-7069,2908,559,8500,-4755,15199
2017-03-09 18:14:25.875559,1794,4992,2321,6091,-2115,15423,-3316,2908,-274,8500,-6692,15199
2017-03-09 18:14:25.900112,1794,4992,2321,6091,-2115,15423,-3316,2908,-274,8500,-6692,15199
2017-03-09 18:14:25.923863,1794,4992,2321,6091,-2115,15423,-3316,2908,-274,8500,-6692,15199
2017-03-09 18:14:25.924009,1794,4992,2321,6091,-2115,15423,-3316,2908,-274,8500,-6692,15199
2017-03-09 18:14:25.936963,1794,4992,2321,6091,-2115,15423,-3316,2908,-274,8500,-6692,15199
2017-03-09 18:14:25.952652,1794,4992,2321,6091,-2115,15423,-3316,2908,-274,8500,-6692,15199
2017-03-09 18:14:25.953446,7603,4992,-5970,10487,3377,15423,1802,2908,-5494,1256,-4660,15199
2017-03-09 18:14:25.977097,7603,4992,-5970,10487,3377,15423,1802,2908,-5494,1256,-4660,15199
2017-03-09 18:14:25.999211,7603,4992,-5970,10487,3377,15423,1802,2908,-5494,1256,-4660,15199
2017-03-09 18:14:25.999211,7603,4992,-5970,10487,3377,15423,1802,2908,-5494,1256,-4660,15199
2017-03-09 18:14:26.010062,7603,4992,-5970,10487,3377,15423,1802,2908,-5494,1256,-4660,15199
2017-03-09 18:14:26.026148,7603,4992,-5970,10487,3377,15423,1802,2908,-5494,1256,-4660,15199
2017-03-09 18:14:26.026951,7603,4992,-5970,10487,3377,15423,1802,2908,-5494,1256,-4660,15199
2017-03-09 18:14:26.047611,2708,4992,-5584,10487,-5246,15423,-5688,2908,5756,1256,-2712,15199
2017-03-09 18:14:26.047771,2708,4992,-5584,10487,-5246,15423,-5688,2908,5756,1256,-2712,15199
2017-03-09 18:14:26.057323,2708,4992,-5584,10487,-5246,15423,-5688,2908,5756,1256,-2712,15199
2017-03-09 18:14:26.079888,2708,4992,-5584,10487,-5246,15423,-5688,2908,5756,1256,-2712,15199
2017-03-09 18:14:26.088003,286,13899,4020,15415,-830,15423,-3971,2908,-1113,1256,-5398,15199
2017-03-09 18:14:26.098149,286,13899,4020,15415,-830,15423,-3971,2908,-1113,1256,-5398,15199
2017-03-09 18:14:26.117588,950,13899,7141,15415,6189,15423,-5356,2908,-2824,1256,3991,15199
2017-03-09 18:14:26.117753,950,13899,7141,15415,6189,15423,-5356,2908,-2824,1256,3991,15199
2017-03-09 18:14:26.139812,950,13899,7141,15415,6189,15423,-5356,2908,-2824,1256,3991,15199
2017-03-09 18:14:26.140152,950,13899,7141,15415,6189,15423,-5356,2908,-2824,1256,3991,15199
2017-03-09 18:14:26.164097,950,13899,7141,15415,6189,15423,-5356,2908,-2824,1256,3991,15199
2017-03-09 18:14:26.171413,950,13899,7141,15415,6189,15423,-5356,2908,-2824,1256,3991,15199
2017-03-09 18:14:26.195392,950,13899,7141,15415,6189,15423,-5356,2908,-2824,1256,3991,15199
2017-03-09 18:14:26.220997,950,13899,7141,15415,6189,15423,-5356,2908,-2824,1256,3991,15199
2017-03-09 18:14:26.237671,950,13899,7141,15415,6189,15423,-5356,2908,-2824,1256,3991,15199
2017-03-09 18:14:26.237938,6946,13899,562,15415,62,15423,-2547,2908,-5820,1256,-1202,15199
2017-03-09 18:14:26.265592,5620,13899,1194,15415,-2856,15423,-509,2908,-4153,1256,-872,15199
2017-03-09 18:14:26.284447,7450,13899,-1764,15415,4132,15423,-1689,2908,-6213,1256,1985,15199
2017-03-09 18:14:26.310889,7450,13899,-1764,15415,4132,15423,-1689,2908,-6213,1256,1985,15199
2017-03-09 18:14:26.318372,7450,13899,-1764,15415,4132,15423,-1689,2908,-6213,1256,1985,15199
2017-03-09 18:14:26.324883,8112,13899,938,15415,-2893,15423,1662,2908,-3107,1256,2017,15199
2017-03-09 18:14:26.353682,8112,13899,938,15415,-2893,15423,1662,2908,-3107,1256,2017,15199
2017-03-09 18:14:26.365881,4228,13899,980,15415,-4430,16112,2176,2908,6745,1256,2173,15199
2017-03-09 18:14:26.399322,4228,13899,980,15415,-4430,16112,2176,2908,6745,1256,2173,15199
2017-03-09 18:14:26.399478,4228,13899,980,15415,-4430,16112,2176,2908,6745,1256,2173,15199
2017-03-09 18:14:26.428968,4228,13899,980,15415,-4430,16112,2176,2908,6745,1256,2173,15199
2017-03-09 18:14:26.429126,4228,13899,980,15415,-4430,16112,2176,2908,6745,1256,2173,15199
2017-03-09 18:14:26.429268,4228,13899,980,15415,-4430,16112,2176,2908,6745,1256,2173,15199
2017-03-09 18:14:26.437672,4228,13899,980,15415,-4430,16112,2176,2908,6745,1256,2173,15199
2017-03-09 18:14:26.445477,3921,13899,7932,15415,-3543,16112,2226,2908,-7191,1256,1429,15199
2017-03-09 18:14:26.468129,3921,13899,7932,15415,-3543,16112,2226,2908,-7191,1256,1429,15199
2017-03-09 18:14:26.487245,3921,13899,7932,15415,-3543,16112,2226,2908,-7191,1256,1429,15199
2017-03-09 18:14:26.501213,-4900,13899,3201,15415,2153,16112,6008,2908,5980,1256,-2176,15199
2017-03-09 18:14:26.507825,-4900,13899,3201,15415,2153,16112,6008,2908,5980,1256,-2176,15199
2017-03-09 18:14:26.526298,-4900,13899,3201,15415,2153,16112,6008,2908,5980,1256,-2176,15199
2017-03-09 18:14:26.526336,3831,13899,-444,15415,6318,16112,-372,2908,6271,1256,6080,10527
2017-03-09 18:14:26.553474,3831,13899,-444,15415,6318,16112,-372,2908,6271,1256,6080,10527
2017-03-09 18:14:26.553622,3831,13899,-444,15415,6318,16112,-372,2908,6271,1256,6080,10527
2017-03-09 18:14:26.563127,3831,13899,-444,15415,6318,16112,-372,2908,6271,1256,6080,10527
2017-03-09 18:14:26.584859,782,13899,5315,15415,-5157,16112,924,2908,-2567,1256,4179,10527
2017-03-09 18:14:26.615047,782,13899,5315,15415,-5157,16112,924,2908,-2567,1256,4179,10527
2017-03-09 18:14:26.620810,782,13899,5315,15415,-5157,16112,924,2908,-2567,1256,4179,10527
2017-03-09 18:14:26.645702,782,13899,5315,15415,-5157,16112,924,2908,-2567,1256,4179,10527
2017-03-09 18:14:26.645855,782,13899,5315,15415,-5157,16112,924,2908,-2567,1256,4179,10527
2017-03-09 18:14:26.667332,782,13899,5315,15415,-5157,16112,924,2908,-2567,1256,4179,10527
2017-03-09 18:14:26.695136,-6678,13899,3860,15415,-718,16112,-6236,2908,-5579,1256,-5763,10527
2017-03-09 18:14:26.695825,-6678,13899,3860,15415,-718,16112,-6236,2908,-5579,1256,-5763,10527
2017-03-09 18:14:26.702985,5210,13899,3930,15415,2215,16112,3400,2908,7095,1256,5566,10527
2017-03-09 18:14:26.718233,5210,13899,3930,15415,2215,16112,3400,2908,7095,1256,5566,10527
2017-03-09 18:14:26.725890,5210,13899,3930,15415,2215,16112,3400,2908,7095,1256,5566,10527
2017-03-09 18:14:26.775393,4163,13899,-3809,15415,-7341,15034,-6293,2908,-7129,1256,725,10527
2017-03-09 18:14:26.780890,4163,13899,-3809,15415,-7341,15034,-6293,2908,-7129,1256,725,10527
2017-03-09 18:14:26.793900,4163,13899,-3809,15415,-7341,15034,-6293,2908,-7129,1256,725,10527
2017-03-09 18:14:26.806440,4163,13899,-3809,15415,-7341,15034,-6293,2908,-7129,1256,725,10527
2017-03-09 18:14:26.830698,4163,13899,-3809,15415,-7341,15034,-6293,2908,-7129,1256,725,10527
2017-03-09 18:14:26.849977,4163,13899,-3809,15415,-7341,15034,-6293,2908,-7129,1256,725,10527
2017-03-09 18:14:26.861582,4163,13899,-3809,15415,-7341,15034,-6293,2908,-7129,1256,725,10527
2017-03-09 18:14:26.877682,4163,13899,-3809,15415,-7341,15034,-6293,2908,-7129,1256,725,10527
2017-03-09 18:14:26.877834,4250,13899,2364,15415,-494,15034,5976,2908,-7410,1256,-3286,10527
2017-03-09 18:14:26.881540,4250,13899,2364,15415,-494,15034,5976,2908,-7410,1256,-3286,10527
2017-03-09 18:14:26.903638,4250,13899,2364,15415,-494,15034,5976,2908,-7410,1256,-3286,10527
2017-03-09 18:14:26.917681,4250,13899,2364,15415,-494,15034,5976,2908,-7410,1256,-3286,10527
2017-03-09 18:14:26.937634,-1820,13899,-5764,15415,-3484,15034,1283,2908,-3871,1256,-4795,10527
2017-03-09 18:14:26.937807,-1820,13899,-5764,15415,-3484,15034,1283,2908,-3871,1256,-4795,10527
2017-03-09 18:14:26.949737,-1820,13899,-5764,15415,-3484,15034,1283,2908,-3871,1256,-4795,10527
2017-03-09 18:14:26.972623,-1820,13899,-5764,15415,-3484,15034,1283,2908,-3871,1256,-4795,10527
2017-03-09 18:14:26.991177,-1820,13899,-5764,15415,-3484,15034,1283,2908,-3871,1256,-4795,10527
2017-03-09 18:14:26.997541,-1820,13899,-5764,15415,-3484,15034,1283,2908,-3871,1256,-4795,10527
2017-03-09 18:14:27.013825,-2819,13899,1506,15415,4734,15034,-6654,2908,-2865,1256,6840,10527
2017-03-09 18:14:27.025327,639,13899,1456,15415,-6745,15034,-1384,2908,5105,1256,-2469,11722
2017-03-09 18:14:27.040461,639,13899,1456,15415,-6745,15034,-1384,2908,5105,1256,-2469,11722
2017-03-09 18:14:27.062689,639,13899,1456,15415,-6745,15034,-1384,2908,5105,1256,-2469,11722
2017-03-09 18:14:27.077059,639,13899,1456,15415,-6745,15034,-1384,2908,5105,1256,-2469,11722
2017-03-09 18:14:27.104695,639,13899,1456,15415,-6745,15034,-1384,2908,5105,1256,-2469,11722
2017-03-09 18:14:27.127259,-3673,13899,1130,15415,2410,15034,6856,2908,58,1256,3600,11722
2017-03-09 18:14:27.146024,-3673,13899,1130,15415,2410,15034,6856,2908,58,1256,3600,11722
2017-03-09 18:14:27.210533,-2707,13899,7803,15415,-713,15034,39,2908,6781,1256,-5690,11722
2017-03-09 18:14:27.210802,-2707,13899,7803,15415,-713,15034,39,2908,6781,1256,-5690,11722
2017-03-09 18:14:27.211099,-2707,13899,7803,15415,-713,15034,39,2908,6781,1256,-5690,11722
2017-03-09 18:14:27.211230,-2707,13899,7803,15415,-713,15034,39,2908,6781,1256,-5690,11722
2017-03-09 18:14:27.227331,-4800,13899,7608,15415,-5641,15034,-148,2908,6856,1256,6137,11722
2017-03-09 18:14:27.250549,-4800,13899,7608,15415,-5641,15034,-148,2908,6856,1256,6137,11722
2017-03-09 18:14:27.261256,-4800,13899,7608,15415,-5641,15034,-148,2908,6856,1256,6137,11722
2017-03-09 18:14:27.275927,-4800,13899,7608,15415,-5641,15034,-148,2908,6856,1256,6137,11722
2017-03-09 18:14:27.290019,-4800,13899,7608,15415,-5641,15034,-148,2908,6856,1256,6137,11722
2017-03-09 18:14:27.305055,-4800,13899,7608,15415,-5641,15034,-148,2908,6856,1256,6137,11722
2017-03-09 18:14:27.323404,-4800,13899,7608,15415,-5641,15034,-148,2908,6856,1256,6137,11722
2017-03-09 18:14:27.333664,-4800,13899,7608,15415,-5641,15034,-148,2908,6856,1256,6137,11722
2017-03-09 18:14:27.348153,-4800,13899,7608,15415,-5641,15034,-148,2908,6856,1256,6137,11722
2017-03-09 18:14:27.348294,7983,13899,-5293,15415,7917,15034,-1502,2908,-5681,1256,3176,11722
2017-03-09 18:14:27.362289,7983,13899,-5293,15415,7917,15034,-1502,2908,-5681,1256,3176,11722
2017-03-09 18:14:27.368948,7983,13899,-5293,15415,7917,15034,-1502,2908,-5681,1256,3176,11722
2017-03-09 18:14:27.394863,7983,13899,-5293,15415,7917,15034,-1502,2908,-5681,1256,3176,11722
2017-03-09 18:14:27.395023,-4242,13899,-1265,15415,2311,15034,1971,2908,5797,1256,-7512,11722
2017-03-09 18:14:27.417447,-4242,13899,-1265,15415,2311,15034,1971,2908,5797,1256,-7512,11722
2017-03-09 18:14:27.422586,-4242,13899,-1265,15415,2311,15034,1971,2908,5797,1256,-7512,11722
2017-03-09 18:14:27.435521,-4242,13899,-1265,15415,2311,15034,1971,2908,5797,1256,-7512,11722
2017-03-09 18:14:27.453722,3894,13899,-6910,11514,4895,15034,4379,2908,-7814,1256,612,11722
2017-03-09 18:14:27.485272,3894,13899,-6910,11514,4895,15034,4379,2908,-7814,1256,612,11722
2017-03-09 18:14:27.486014,3894,13899,-6910,11514,4895,15034,4379,2908,-7814,1256,612,11722
2017-03-09 18:14:27.505443,3894,13899,-6910,11514,4895,15034,4379,2908,-7814,1256,612,11722
2017-03-09 18:14:27.512613,-1047,13899,305,11514,2315,15034,-5857,2908,-5658,1256,3988,11722
2017-03-09 18:14:27.545346,-1047,13899,305,11514,2315,15034,-5857,2908,-5658,1256,3988,11722
2017-03-09 18:14:27.545519,593,13899,3547,11514,3911,15034,-6397,2908,-8065,1256,-2973,11722
2017-03-09 18:14:27.545647,593,13899,3547,11514,3911,15034,-6397,2908,-8065,1256,-2973,11722
2017-03-09 18:14:27.557513,593,13899,3547,11514,3911,15034,-6397,2908,-8065,1256,-2973,11722
2017-03-09 18:14:27.577067,-1857,13899,121,11514,7992,15034,-6124,2908,-7434,1256,-594,11722
2017-03-09 18:14:27.590038,-1857,13899,121,11514,7992,15034,-6124,2908,-7434,1256,-594,11722
2017-03-09 18:14:27.590195,-1857,13899,121,11514,7992,15034,-6124,2908,-7434,1256,-594,11722
2017-03-09 18:14:27.604715,761,13899,2656,11514,-894,15034,-7724,2908,1158,1256,1890,11722
2017-03-09 18:14:27.628982,761,13899,2656,11514,-894,15034,-7724,2908,1158,1256,1890,11722
2017-03-09 18:14:27.633755,-7206,13899,4462,11514,-5232,15034,2807,2908,-5781,1256,3784,11722
2017-03-09 18:14:27.634015,-4586,13899,5581,11514,-7315,15034,-4591,2908,379,10760,7673,11722
2017-03-09 18:14:27.670361,-6846,13899,-6186,11514,-1256,15034,2991,2908,5086,10760,2158,11722
2017-03-09 18:14:27.670362,5732,4480,-3299,11514,-4592,15034,-5962,2908,-6122,10760,6577,11722
2017-03-09 18:14:27.686998,5732,4480,-3299,11514,-4592,15034,-5962,2908,-6122,10760,6577,11722
2017-03-09 18:14:27.691174,5732,4480,-3299,11514,-4592,15034,-5962,2908,-6122,10760,6577,11722
2017-03-09 18:14:27.701520,-5607,4480,5532,11514,-5812,15034,-5145,2908,5402,10760,5036,11722
2017-03-09 18:14:27.708087,-5607,4480,5532,11514,-5812,15034,-5145,2908,5402,10760,5036,11722
2017-03-09 18:14:27.765512,-997,4480,3700,11514,6595,15034,-1076,2908,-1530,10760,7708,11722
2017-03-09 18:14:27.770868,-997,4480,3700,11514,6595,15034,-1076,2908,-1530,10760,7708,11722
2017-03-09 18:14:27.771086,-997,4480,3700,11514,6595,15034,-1076,2908,-1530,10760,7708,11722
2017-03-09 18:14:27.771125,-997,4480,3700,11514,6595,15034,-1076,2908,-1530,10760,7708,11722
2017-03-09 18:14:27.771162,1258,4480,-4392,11514,7666,15034,-5061,2908,-900,10760,-5711,11722
2017-03-09 18:14:27.771197,715,4480,-6424,11514,5474,15034,-2891,2908,4814,10760,-5850,11722
2017-03-09 18:14:27.771233,715,4480,-6424,11514,5474,15034,-2891,2908,4814,10760,-5850,11722
2017-03-09 18:14:27.807035,-4767,4480,-6255,11514,-6671,15034,3482,2908,-6438,10760,6715,11722
2017-03-09 18:14:27.807108,-4767,4480,-6255,11514,-6671,15034,3482,2908,-6438,10760,6715,11722
2017-03-09 18:14:27.807145,395,4480,1551,11514,2417,15034,-2466,2908,2078,10760,-5036,11722
2017-03-09 18:14:27.826645,395,4480,1551,11514,2417,15034,-2466,2908,2078,10760,-5036,11722
2017-03-09 18:14:27.826718,7736,4480,349,11514,1285,15034,-7743,2908,1955,10760,-1094,11123
2017-03-09 18:14:27.846584,7736,4480,349,11514,1285,15034,-7743,2908,1955,10760,-1094,11123
2017-03-09 18:14:27.856093,2453,4480,8014,11514,-42,15034,-2613,2908,3302,10760,-7929,11123
2017-03-09 18:14:27.865676,2453,4480,8014,11514,-42,15034,-2613,2908,3302,10760,-7929,11123
2017-03-09 18:14:27.888007,-718,4480,4494,11514,4056,15034,5015,2908,8013,10760,-5312,11123
2017-03-09 18:14:27.915636,-718,4480,4494,11514,4056,15034,5015,2908,8013,10760,-5312,11123
2017-03-09 18:14:27.915731,-718,4480,4494,11514,4056,15034,5015,2908,8013,10760,-5312,11123
2017-03-09 18:14:27.915976,-2073,4480,5466,11514,-2401,15034,-3773,2908,2393,10760,4764,11123
2017-03-09 18:14:27.928826,-371,4480,-4761,11514,581,15034,-3964,2908,-824,10760,4911,11123
2017-03-09 18:14:27.935644,1057,4480,3615,11514,-4954,15034,7985,2908,-4987,10760,988,11123
2017-03-09 18:14:27.957062,1057,4480,3615,11514,-4954,15034,7985,2908,-4987,10760,988,11123
2017-03-09 18:14:27.957193,1057,4480,3615,11514,-4954,15034,7985,2908,-4987,10760,988,11123
2017-03-09 18:14:27.966904,-3065,4480,1207,11514,-1311,15034,-2093,2908,6632,10760,75,11123
2017-03-09 18:14:27.999115,-3065,4480,1207,11514,-1311,15034,-2093,2908,6632,10760,75,11123
2017-03-09 18:14:27.999298,-3065,4480,1207,11514,-1311,15034,-2093,2908,6632,10760,75,11123
2017-03-09 18:14:27.999446,-3065,4480,1207,11514,-1311,15034,-2093,2908,6632,10760,75,11123
2017-03-09 18:14:28.032058,-6028,4480,2088,11514,7438,15034,4819,8421,7468,10760,4770,11123
2017-03-09 18:14:28.036141,-6028,4480,2088,11514,7438,15034,4819,8421,7468,10760,4770,11123
2017-03-09 18:14:28.053852,-6028,4480,2088,11514,7438,15034,4819,8421,7468,10760,4770,11123
2017-03-09 18:14:28.075232,-6028,4480,2088,11514,7438,15034,4819,8421,7468,10760,4770,11123
2017-03-09 18:14:28.108905,6529,4480,2883,11514,3462,15034,3330,8421,-1628,10760,-6363,11123
2017-03-09 18:14:28.109129,6529,4480,2883,11514,3462,15034,3330,8421,-1628,10760,-6363,11123
2017-03-09 18:14:28.109284,6529,4480,2883,11514,3462,15034,3330,8421,-1628,10760,-6363,11123
2017-03-09 18:14:28.145882,6529,4480,2883,11514,3462,15034,3330,8421,-1628,10760,-6363,11123
2017-03-09 18:14:28.146104,6529,4480,2883,11514,3462,15034,3330,8421,-1628,10760,-6363,11123
2017-03-09 18:14:28.163492,4317,4480,-6209,11514,-3663,15034,-296,8421,1308,10760,7653,11123
2017-03-09 18:14:28.163695,4317,4480,-6209,11514,-3663,15034,-296,8421,1308,10760,7653,11123
2017-03-09 18:14:28.186485,4317,4480,-6209,11514,-3663,15034,-296,8421,1308,10760,7653,11123
2017-03-09 18:14:28.201460,1312,4480,3557,11514,-465,15034,-1190,8421,-3097,10760,4941,11123
2017-03-09 18:14:28.225811,1312,4480,3557,11514,-465,15034,-1190,8421,-3097,10760,4941,11123
