Timestamp,AF3 Value,AF3 Quality,AF4 Value,AF4 Quality,F3 Value,F3 Quality,F4 Value,F4 Quality,F7 Value,F7 Quality,F8 Value,F8 Quality
2017-03-09 18:12:58.353888,7237,0,-814,0,2732,0,1987,0,7268,0,-1029,12982
2017-03-09 18:12:58.373929,7237,0,-814,0,2732,0,1987,0,7268,0,-1029,12982
2017-03-09 18:12:58.374027,1731,0,-990,0,4791,0,7589,0,887,0,-1224,12636
2017-03-09 18:12:58.374123,1731,0,-990,0,4791,0,7589,0,887,0,-1224,12636
2017-03-09 18:12:58.425124,1731,0,-990,0,4791,0,7589,0,887,0,-1224,12636
2017-03-09 18:12:58.425348,-508,0,-2605,0,-4387,0,-3552,0,-221,0,7150,12636
2017-03-09 18:12:58.425515,-508,0,-2605,0,-4387,0,-3552,0,-221,0,7150,12636
2017-03-09 18:12:58.434740,-508,0,-2605,0,-4387,0,-3552,0,-221,0,7150,12636
2017-03-09 18:12:58.476177,-508,0,-2605,0,-4387,0,-3552,0,-221,0,7150,12636
2017-03-09 18:12:58.476389,-508,0,-2605,0,-4387,0,-3552,0,-221,0,7150,12636
2017-03-09 18:12:58.476548,1062,0,943,0,7995,9524,-706,0,-5567,0,5547,16095
2017-03-09 18:12:58.476861,1062,0,943,0,7995,9524,-706,0,-5567,0,5547,16095
2017-03-09 18:12:58.500834,1062,0,943,0,7995,9524,-706,0,-5567,0,5547,16095
2017-03-09 18:12:58.500899,1813,0,-5566,0,3944,9524,-5868,0,-2188,529,-287,16095
2017-03-09 18:12:58.500975,1813,0,-5566,0,3944,9524,-5868,0,-2188,529,-287,16095
2017-03-09 18:12:58.500995,1813,0,-5566,0,3944,9524,-5868,0,-2188,529,-287,16095
2017-03-09 18:12:58.501203,1813,0,-5566,0,3944,9524,-5868,0,-2188,529,-287,16095
2017-03-09 18:12:58.501246,1813,0,-5566,0,3944,9524,-5868,0,-2188,529,-287,16095
2017-03-09 18:12:58.501312,1813,0,-5566,0,3944,9524,-5868,0,-2188,529,-287,16095
2017-03-09 18:12:58.501353,1813,0,-5566,0,3944,9524,-5868,0,-2188,529,-287,16095
2017-03-09 18:12:58.501391,1813,0,-5566,0,3944,9524,-5868,0,-2188,529,-287,16095
2017-03-09 18:12:58.501466,-192,0,4941,0,5930,9524,5039,0,-3049,529,-7959,16095
2017-03-09 18:12:58.501506,-192,0,4941,0,5930,9524,5039,0,-3049,529,-7959,16095
2017-03-09 18:12:58.501569,-192,0,4941,0,5930,9524,5039,0,-3049,529,-7959,16095
2017-03-09 18:12:58.501609,-192,0,4941,0,5930,9524,5039,0,-3049,529,-7959,16095
2017-03-09 18:12:58.501690,8048,0,-6532,0,4246,9524,-6845,0,-949,529,6231,16095
2017-03-09 18:12:58.522055,8048,0,-6532,0,4246,9524,-6845,0,-949,529,6231,16095
2017-03-09 18:12:58.522220,-2446,0,1526,0,-6171,9524,7657,0,2116,529,4094,16095
2017-03-09 18:12:58.541390,-2446,0,1526,0,-6171,9524,7657,0,2116,529,4094,16095
2017-03-09 18:12:58.541543,-2446,0,1526,0,-6171,9524,7657,0,2116,529,4094,16095
2017-03-09 18:12:58.569594,-2446,0,1526,0,-6171,9524,7657,0,2116,529,4094,16095
2017-03-09 18:12:58.569657,-2446,0,1526,0,-6171,9524,7657,0,2116,529,4094,16095
2017-03-09 18:12:58.573320,7503,0,3579,0,4557,9524,-4730,0,1301,529,1529,16095
2017-03-09 18:12:58.589699,7503,0,3579,0,4557,9524,-4730,0,1301,529,1529,16095
2017-03-09 18:12:58.589904,7503,0,3579,0,4557,9524,-4730,0,1301,529,1529,16095
2017-03-09 18:12:58.590053,7503,0,3579,0,4557,9524,-4730,0,1301,529,1529,16095
2017-03-09 18:12:58.605778,7503,0,3579,0,4557,9524,-4730,0,1301,529,1529,16095
2017-03-09 18:12:58.622310,7503,0,3579,0,4557,9524,-4730,0,1301,529,1529,16095
2017-03-09 18:12:58.649136,7503,0,3579,0,4557,9524,-4730,0,1301,529,1529,16095
2017-03-09 18:12:58.657677,7503,0,3579,0,4557,9524,-4730,0,1301,529,1529,16095
2017-03-09 18:12:58.657875,7503,0,3579,0,4557,9524,-4730,0,1301,529,1529,16095
2017-03-09 18:12:58.678598,7503,0,3579,0,4557,9524,-4730,0,1301,529,1529,16095
2017-03-09 18:12:58.680340,6870,0,-4996,0,-4399,9524,-6746,0,-5519,529,-2230,16095
2017-03-09 18:12:58.693498,6870,0,-4996,0,-4399,9524,-6746,0,-5519,529,-2230,16095
2017-03-09 18:12:58.698761,6870,0,-4996,0,-4399,9524,-6746,0,-5519,529,-2230,16095
2017-03-09 18:12:58.722799,6870,0,-4996,0,-4399,9524,-6746,0,-5519,529,-2230,16095
2017-03-09 18:12:58.733882,6870,0,-4996,0,-4399,9524,-6746,0,-5519,529,-2230,16095
2017-03-09 18:12:58.741436,6870,0,-4996,0,-4399,9524,-6746,0,-5519,529,-2230,16095
2017-03-09 18:12:58.757748,-6645,0,-1191,0,2117,9524,-4378,0,-5032,529,-4695,16095
2017-03-09 18:12:58.774778,-6645,0,-1191,0,2117,9524,-4378,0,-5032,529,-4695,16095
2017-03-09 18:12:58.799596,-6645,0,-1191,0,2117,9524,-4378,0,-5032,529,-4695,16095
2017-03-09 18:12:58.817346,-6645,0,-1191,0,2117,9524,-4378,0,-5032,529,-4695,16095
2017-03-09 18:12:58.827569,-6645,0,-1191,0,2117,9524,-4378,0,-5032,529,-4695,16095
2017-03-09 18:12:58.837222,-6645,0,-1191,0,2117,9524,-4378,0,-5032,529,-4695,16095
2017-03-09 18:12:58.849657,-6645,0,-1191,0,2117,9524,-4378,0,-5032,529,-4695,16095
2017-03-09 18:12:58.860637,-6645,0,-1191,0,2117,9524,-4378,0,-5032,529,-4695,16095
2017-03-09 18:12:58.883406,4963,0,173,0,7599,9524,3455,0,-7360,529,-7921,16095
2017-03-09 18:12:58.884404,4963,0,173,0,7599,9524,3455,0,-7360,529,-7921,16095
2017-03-09 18:12:58.892060,4963,0,173,0,7599,9524,3455,0,-7360,529,-7921,16095
2017-03-09 18:12:58.903927,4963,0,173,0,7599,9524,3455,0,-7360,529,-7921,16095
2017-03-09 18:12:58.909953,4963,0,173,0,7599,9524,3455,0,-7360,529,-7921,16095
2017-03-09 18:12:58.922318,4963,0,173,0,7599,9524,3455,0,-7360,529,-7921,16095
2017-03-09 18:12:58.927942,4963,0,173,0,7599,9524,3455,0,-7360,529,-7921,16095
2017-03-09 18:12:58.937832,4185,0,4393,0,7009,9524,5320,0,2750,529,-2203,16095
2017-03-09 18:12:58.949649,1264,0,340,0,2411,9524,-2675,0,-3777,10161,-3612,16095
2017-03-09 18:12:58.957757,1264,0,340,0,2411,9524,-2675,0,-3777,10161,-3612,16095
2017-03-09 18:12:58.964166,1264,0,340,0,2411,9524,-2675,0,-3777,10161,-3612,16095
2017-03-09 18:12:58.970937,1264,0,340,0,2411,9524,-2675,0,-3777,10161,-3612,16095
2017-03-09 18:12:58.982352,1264,0,340,0,2411,9524,-2675,0,-3777,10161,-3612,16095
2017-03-09 18:12:58.985774,1089,0,-7401,5075,1948,9524,-5962,0,5364,10161,-2006,16095
2017-03-09 18:12:58.999776,1089,0,-7401,5075,1948,9524,-5962,0,5364,10161,-2006,16095
2017-03-09 18:12:59.013318,611,0,6520,5075,6006,9524,7401,0,-2313,10161,374,16095
2017-03-09 18:12:59.018484,611,0,6520,5075,6006,9524,7401,0,-2313,10161,374,16095
2017-03-09 18:12:59.031006,611,0,6520,5075,6006,9524,7401,0,-2313,10161,374,16095
2017-03-09 18:12:59.041443,611,0,6520,5075,6006,9524,7401,0,-2313,10161,374,16095
2017-03-09 18:12:59.049085,611,0,6520,5075,6006,9524,7401,0,-2313,10161,374,16095
2017-03-09 18:12:59.063327,611,0,6520,5075,6006,9524,7401,0,-2313,10161,374,16095
2017-03-09 18:12:59.078754,-1854,0,5144,5075,3929,9524,6136,0,-4149,10161,7541,16095
2017-03-09 18:12:59.096170,-1854,0,5144,5075,3929,9524,6136,0,-4149,10161,7541,16095
2017-03-09 18:12:59.124477,-1854,0,5144,5075,3929,9524,6136,0,-4149,10161,7541,16095
2017-03-09 18:12:59.138624,-5024,0,3656,5075,-7383,9524,6721,0,3139,10161,-6899,16095
2017-03-09 18:12:59.143127,-5024,0,3656,5075,-7383,9524,6721,0,3139,10161,-6899,16095
2017-03-09 18:12:59.149882,-5024,0,3656,5075,-7383,9524,6721,0,3139,10161,-6899,16095
2017-03-09 18:12:59.163216,-5024,0,3656,5075,-7383,9524,6721,0,3139,10161,-6899,16095
2017-03-09 18:12:59.163937,-5024,0,3656,5075,-7383,9524,6721,0,3139,10161,-6899,16095
2017-03-09 18:12:59.172309,-6045,0,-4808,5075,-7183,9524,-1491,0,2129,10161,5041,16095
2017-03-09 18:12:59.183587,-6045,0,-4808,5075,-7183,9524,-1491,0,2129,10161,5041,16095
2017-03-09 18:12:59.189393,3331,0,-2603,5075,-3946,9524,-2123,0,4968,10161,-38,16095
2017-03-09 18:12:59.195030,3331,0,-2603,5075,-3946,9524,-2123,0,4968,10161,-38,16095
2017-03-09 18:12:59.201420,-4967,0,-7580,5075,1295,9524,159,0,6196,10161,-1074,16095
2017-03-09 18:12:59.206265,-4967,0,-7580,5075,1295,9524,159,0,6196,10161,-1074,16095
2017-03-09 18:12:59.220682,-4967,0,-7580,5075,1295,9524,159,0,6196,10161,-1074,16095
2017-03-09 18:12:59.220922,-4967,0,-7580,5075,1295,9524,159,0,6196,10161,-1074,16095
2017-03-09 18:12:59.248522,3302,0,3457,5075,-2987,9524,-2328,0,3852,10161,6545,16095
2017-03-09 18:12:59.261417,3302,0,3457,5075,-2987,9524,-2328,0,3852,10161,6545,16095
2017-03-09 18:12:59.273525,3302,0,3457,5075,-2987,9524,-2328,0,3852,10161,6545,16095
2017-03-09 18:12:59.281021,3302,0,3457,5075,-2987,9524,-2328,0,3852,10161,6545,16095
2017-03-09 18:12:59.288214,3302,0,3457,5075,-2987,9524,-2328,0,3852,10161,6545,16095
2017-03-09 18:12:59.297294,-596,0,4277,5075,4025,9524,8157,15453,7984,10161,7414,16095
2017-03-09 18:12:59.302136,-596,0,4277,5075,4025,9524,8157,15453,7984,10161,7414,16095
2017-03-09 18:12:59.324920,-596,0,4277,5075,4025,9524,8157,15453,7984,10161,7414,16095
2017-03-09 18:12:59.325532,-596,0,4277,5075,4025,9524,8157,15453,7984,10161,7414,16095
2017-03-09 18:12:59.348661,-596,0,4277,5075,4025,9524,8157,15453,7984,10161,7414,16095
2017-03-09 18:12:59.348976,-596,0,4277,5075,4025,9524,8157,15453,7984,10161,7414,16095
2017-03-09 18:12:59.355280,5872,0,-6141,5075,262,9524,4737,15453,-7410,10161,-396,16095
2017-03-09 18:12:59.365763,5872,0,-6141,5075,262,9524,4737,15453,-7410,10161,-396,16095
2017-03-09 18:12:59.370830,5872,0,-6141,5075,262,9524,4737,15453,-7410,10161,-396,16095
2017-03-09 18:12:59.381569,3378,3587,1113,5075,-4903,9524,4770,15453,5014,10161,7054,16095
2017-03-09 18:12:59.385844,3378,3587,1113,5075,-4903,9524,4770,15453,5014,10161,7054,16095
2017-03-09 18:12:59.390429,3378,3587,1113,5075,-4903,9524,4770,15453,5014,10161,7054,16095
2017-03-09 18:12:59.397612,3378,3587,1113,5075,-4903,9524,4770,15453,5014,10161,7054,16095
2017-03-09 18:12:59.402789,3378,3587,1113,5075,-4903,9524,4770,15453,5014,10161,7054,16095
2017-03-09 18:12:59.411386,5705,3587,4893,5075,-3309,9524,-2602,15453,-4152,10161,-2606,16095
2017-03-09 18:12:59.418623,5705,3587,4893,5075,-3309,9524,-2602,15453,-4152,10161,-2606,16095
2017-03-09 18:12:59.431288,5705,3587,4893,5075,-3309,9524,-2602,15453,-4152,10161,-2606,16095
2017-03-09 18:12:59.445213,-5556,3587,579,5075,6157,9524,8126,15453,-607,10161,-2847,16095
2017-03-09 18:12:59.453725,293,3587,2490,5075,3685,9524,1982,15453,-4919,10161,4640,16095
2017-03-09 18:12:59.463753,293,3587,2490,5075,3685,9524,1982,15453,-4919,10161,4640,16095
2017-03-09 18:12:59.472923,293,3587,2490,5075,3685,9524,1982,15453,-4919,10161,4640,16095
2017-03-09 18:12:59.476127,293,3587,2490,5075,3685,9524,1982,15453,-4919,10161,4640,16095
2017-03-09 18:12:59.490209,293,3587,2490,5075,3685,9524,1982,15453,-4919,10161,4640,16095
2017-03-09 18:12:59.501992,293,3587,2490,5075,3685,9524,1982,15453,-4919,10161,4640,16095
2017-03-09 18:12:59.522742,293,3587,2490,5075,3685,9524,1982,15453,-4919,10161,4640,16095
2017-03-09 18:12:59.532164,293,3587,2490,5075,3685,9524,1982,15453,-4919,10161,4640,16095
2017-03-09 18:12:59.535824,216,3587,-3883,5075,503,9524,-2988,15453,7382,10161,4864,16095
2017-03-09 18:12:59.545032,-1648,3587,-4131,5075,-7968,9524,5184,15453,7800,10161,-333,16095
2017-03-09 18:12:59.557457,-1648,3587,-4131,5075,-7968,9524,5184,15453,7800,10161,-333,16095
2017-03-09 18:12:59.570317,184,3587,5649,5075,-542,9524,-5512,15453,-1340,10161,6173,16095
2017-03-09 18:12:59.582844,-2468,3587,-1717,5075,4769,9524,-6621,15453,-5045,10161,2645,16095
2017-03-09 18:12:59.589392,-2468,3587,-1717,5075,4769,9524,-6621,15453,-5045,10161,2645,16095
2017-03-09 18:12:59.599644,-499,3587,-7590,5075,-3903,9524,-1182,15453,7087,10161,-3849,16095
2017-03-09 18:12:59.615301,-499,3587,-7590,5075,-3903,9524,-1182,15453,7087,10161,-3849,16095
2017-03-09 18:12:59.629316,5834,3587,6378,5075,4085,9524,-6035,15453,-427,10161,3763,16095
2017-03-09 18:12:59.636430,5834,3587,6378,5075,4085,9524,-6035,15453,-427,10161,3763,16095
2017-03-09 18:12:59.647746,-5957,3587,-7176,5075,2070,9524,-1877,15453,3374,10161,5777,5201
2017-03-09 18:12:59.655581,-5957,3587,-7176,5075,2070,9524,-1877,15453,3374,10161,5777,5201
2017-03-09 18:12:59.661353,-5957,3587,-7176,5075,2070,9524,-1877,15453,3374,10161,5777,5201
2017-03-09 18:12:59.671044,6107,3587,-1122,5075,2878,9524,-660,15453,-3226,10161,1053,5201
2017-03-09 18:12:59.681525,6107,3587,-1122,5075,2878,9524,-660,15453,-3226,10161,1053,5201
2017-03-09 18:12:59.691914,2743,3587,7362,12999,-6921,9524,6545,15453,-5399,10161,4975,5201
2017-03-09 18:12:59.698350,2743,3587,7362,12999,-6921,9524,6545,15453,-5399,10161,4975,5201
2017-03-09 18:12:59.708617,2332,3587,-6080,12999,769,9524,-8049,15453,4014,10161,-597,5201
2017-03-09 18:12:59.737538,2332,3587,-6080,12999,769,9524,-8049,15453,4014,10161,-597,5201
2017-03-09 18:12:59.751096,2332,3587,-6080,12999,769,9524,-8049,15453,4014,10161,-597,5201
2017-03-09 18:12:59.755220,3109,3587,-6613,12999,-3603,9524,1728,15453,-4122,10161,-7079,5201
2017-03-09 18:12:59.763696,3109,3587,-6613,12999,-3603,9524,1728,15453,-4122,10161,-7079,5201
2017-03-09 18:12:59.768806,3109,3587,-6613,12999,-3603,9524,1728,15453,-4122,10161,-7079,5201
2017-03-09 18:12:59.777458,-5718,3587,4488,12999,3143,9524,-276,15453,897,10161,-2327,5201
2017-03-09 18:12:59.783092,-5718,3587,4488,12999,3143,9524,-276,15453,897,10161,-2327,5201
2017-03-09 18:12:59.788492,-5718,3587,4488,12999,3143,9524,-276,15453,897,10161,-2327,5201
2017-03-09 18:12:59.799772,-5718,3587,4488,12999,3143,9524,-276,15453,897,10161,-2327,5201
2017-03-09 18:12:59.799975,-5718,3587,4488,12999,3143,9524,-276,15453,897,10161,-2327,5201
2017-03-09 18:12:59.805660,5482,3587,3887,12999,-6484,9524,2721,15453,3368,10161,-2713,5201
2017-03-09 18:12:59.821664,-4790,3587,-2312,12999,-7439,9524,-4246,15453,-3613,10161,3617,5201
2017-03-09 18:12:59.821828,-4790,3587,-2312,12999,-7439,9524,-4246,15453,-3613,10161,3617,5201
2017-03-09 18:12:59.838741,-4790,3587,-2312,12999,-7439,9524,-4246,15453,-3613,10161,3617,5201
2017-03-09 18:12:59.846480,-7729,3587,-7373,8848,-360,9524,-70,15453,4673,10161,-5106,5201
2017-03-09 18:12:59.846621,-7729,3587,-7373,8848,-360,9524,-70,15453,4673,10161,-5106,5201
2017-03-09 18:12:59.861597,-7729,3587,-7373,8848,-360,9524,-70,15453,4673,10161,-5106,5201
2017-03-09 18:12:59.874699,-7729,3587,-7373,8848,-360,9524,-70,15453,4673,10161,-5106,5201
2017-03-09 18:12:59.874858,-7729,3587,-7373,8848,-360,9524,-70,15453,4673,10161,-5106,5201
2017-03-09 18:12:59.889002,-2614,3587,-6239,8848,-1000,9524,-7663,15453,-5341,10161,971,5201
2017-03-09 18:12:59.894245,-2614,3587,-6239,8848,-1000,9524,-7663,15453,-5341,10161,971,5201
2017-03-09 18:12:59.902395,-2614,3587,-6239,8848,-1000,9524,-7663,15453,-5341,10161,971,5201
2017-03-09 18:12:59.913254,-2614,3587,-6239,8848,-1000,9524,-7663,15453,-5341,10161,971,5201
2017-03-09 18:12:59.932229,-6070,3587,-7325,8848,7701,9524,4803,15453,-7741,10161,-3415,5201
2017-03-09 18:12:59.945071,-6070,3587,-7325,8848,7701,9524,4803,15453,-7741,10161,-3415,5201
2017-03-09 18:12:59.953060,-6070,3587,-7325,8848,7701,9524,4803,15453,-7741,10161,-3415,5201
2017-03-09 18:12:59.965752,-6070,3587,-7325,8848,7701,9524,4803,15453,-7741,10161,-3415,5201
2017-03-09 18:12:59.977007,-332,3587,-840,8848,356,9524,-2654,15453,8052,10161,-2156,5201
2017-03-09 18:12:59.991157,188,3587,5494,8848,-2109,9524,7247,15453,102,10161,-3656,5201
2017-03-09 18:12:59.997912,188,3587,5494,8848,-2109,9524,7247,15453,102,10161,-3656,5201
2017-03-09 18:13:00.003190,-6539,3587,-48,8848,967,9524,2844,15453,-8165,10161,-1660,5201
2017-03-09 18:13:00.016299,-6539,3587,-48,8848,967,9524,2844,15453,-8165,10161,-1660,5201
2017-03-09 18:13:00.021699,-6539,3587,-48,8848,967,9524,2844,15453,-8165,10161,-1660,5201
2017-03-09 18:13:00.031670,-6539,3587,-48,8848,967,9524,2844,15453,-8165,10161,-1660,5201
2017-03-09 18:13:00.039359,-6539,3587,-48,8848,967,9524,2844,15453,-8165,10161,-1660,5201
2017-03-09 18:13:00.064926,6324,3587,-1408,8848,3287,9524,-561,15453,1021,10161,5412,5201
2017-03-09 18:13:00.069456,6324,3587,-1408,8848,3287,9524,-561,15453,1021,10161,5412,5201
2017-03-09 18:13:00.079831,6324,3587,-1408,8848,3287,9524,-561,15453,1021,10161,5412,5201
2017-03-09 18:13:00.092973,6324,3587,-1408,8848,3287,9524,-561,15453,1021,10161,5412,5201
2017-03-09 18:13:00.098049,6324,3587,-1408,8848,3287,9524,-561,15453,1021,10161,5412,5201
2017-03-09 18:13:00.099142,6324,3587,-1408,8848,3287,9524,-561,15453,1021,10161,5412,5201
2017-03-09 18:13:00.107399,6324,3587,-1408,8848,3287,9524,-561,15453,1021,10161,5412,5201
2017-03-09 18:13:00.157940,6324,3587,-1408,8848,3287,9524,-561,15453,1021,10161,5412,5201
2017-03-09 18:13:00.169656,6324,3587,-1408,8848,3287,9524,-561,15453,1021,10161,5412,5201
2017-03-09 18:13:00.174757,1821,3587,1135,8848,-2106,9524,4370,15453,3300,10161,-7934,5201
2017-03-09 18:13:00.181831,1821,3587,1135,8848,-2106,9524,4370,15453,3300,10161,-7934,5201
2017-03-09 18:13:00.187413,624,3587,-482,8848,6640,9524,-3977,15453,-7902,10161,7904,5201
2017-03-09 18:13:00.195335,624,3587,-482,8848,6640,9524,-3977,15453,-7902,10161,7904,5201
2017-03-09 18:13:00.200314,-3460,3587,-4806,8848,-7382,9524,-3494,15453,-2205,10161,-4395,5201
2017-03-09 18:13:00.210607,-3460,3587,-4806,8848,-7382,9524,-3494,15453,-2205,10161,-4395,5201
2017-03-09 18:13:00.218160,-3364,3587,-7628,8848,-1726,9524,-7572,15453,1109,10161,6735,5201
2017-03-09 18:13:00.226986,-3364,3587,-7628,8848,-1726,9524,-7572,15453,1109,10161,6735,5201
2017-03-09 18:13:00.230338,-3364,3587,-7628,8848,-1726,9524,-7572,15453,1109,10161,6735,5201
2017-03-09 18:13:00.237969,-3364,3587,-7628,8848,-1726,9524,-7572,15453,1109,10161,6735,5201
2017-03-09 18:13:00.258844,3563,3587,-1437,8848,-445,9524,-2234,15453,1658,10161,-1570,5201
2017-03-09 18:13:00.259493,3563,3587,-1437,8848,-445,9524,-2234,15453,1658,10161,-1570,5201
2017-03-09 18:13:00.271260,3563,3587,-1437,8848,-445,9524,-2234,15453,1658,10161,-1570,5201
2017-03-09 18:13:00.277803,3563,3587,-1437,8848,-445,9524,-2234,15453,1658,10161,-1570,5201
2017-03-09 18:13:00.288677,3563,3587,-1437,8848,-445,9524,-2234,15453,1658,10161,-1570,5201
2017-03-09 18:13:00.295520,3563,3587,-1437,8848,-445,9524,-2234,15453,1658,10161,-1570,5201
2017-03-09 18:13:00.301564,3563,3587,-1437,8848,-445,9524,-2234,15453,1658,10161,-1570,5201
2017-03-09 18:13:00.315143,-4623,3587,-7031,8848,-6445,9524,6369,15453,2639,10161,-848,5201
2017-03-09 18:13:00.320223,-4623,3587,-7031,8848,-6445,9524,6369,15453,2639,10161,-848,5201
2017-03-09 18:13:00.329713,-4570,3587,7480,8848,3853,9524,4055,15453,-4179,10161,-2021,5201
2017-03-09 18:13:00.359922,-4570,3587,7480,8848,3853,9524,4055,15453,-4179,10161,-2021,5201
2017-03-09 18:13:00.362150,-4570,3587,7480,8848,3853,9524,4055,15453,-4179,10161,-2021,5201
2017-03-09 18:13:00.377681,4792,3587,4619,8848,-6930,9524,6269,15453,-6937,10161,4815,5201
2017-03-09 18:13:00.381854,4792,3587,4619,8848,-6930,9524,6269,15453,-6937,10161,4815,5201
2017-03-09 18:13:00.394567,1352,3587,3898,5479,-5038,9524,1797,15453,3849,10161,6549,5201
2017-03-09 18:13:00.407230,1352,3587,3898,5479,-5038,9524,1797,15453,3849,10161,6549,5201
2017-03-09 18:13:00.416948,1352,3587,3898,5479,-5038,9524,1797,15453,3849,10161,6549,5201
2017-03-09 18:13:00.417999,-6746,3587,-5951,5479,3903,9524,2330,15453,-7505,10161,6540,5201
2017-03-09 18:13:00.429876,7070,3587,4165,5479,-6344,9524,1991,6102,2736,10161,1134,5201
2017-03-09 18:13:00.441440,7070,3587,4165,5479,-6344,9524,1991,6102,2736,10161,1134,5201
2017-03-09 18:13:00.446479,7070,3587,4165,5479,-6344,9524,1991,6102,2736,10161,1134,5201
2017-03-09 18:13:00.451866,7070,3587,4165,5479,-6344,9524,1991,6102,2736,10161,1134,5201
2017-03-09 18:13:00.466443,7070,3587,4165,5479,-6344,9524,1991,6102,2736,10161,1134,5201
2017-03-09 18:13:00.475612,7070,3587,4165,5479,-6344,9524,1991,6102,2736,10161,1134,5201
2017-03-09 18:13:00.487442,7070,3587,4165,5479,-6344,9524,1991,6102,2736,10161,1134,5201
2017-03-09 18:13:00.500448,7070,3587,4165,5479,-6344,9524,1991,6102,2736,10161,1134,5201
2017-03-09 18:13:00.501631,7070,3587,4165,5479,-6344,9524,1991,6102,2736,10161,1134,5201
2017-03-09 18:13:00.518812,3186,3587,-8011,5479,7608,9524,1186,6102,-4958,10161,1135,5201
2017-03-09 18:13:00.534844,-2218,3587,-2185,5479,4373,9524,-5760,6102,-413,10161,1245,5201
2017-03-09 18:13:00.561606,-2218,3587,-2185,5479,4373,9524,-5760,6102,-413,10161,1245,5201
2017-03-09 18:13:00.569606,-2218,3587,-2185,5479,4373,9524,-5760,6102,-413,10161,1245,5201
2017-03-09 18:13:00.575491,-2218,3587,-2185,5479,4373,9524,-5760,6102,-413,10161,1245,5201
2017-03-09 18:13:00.586082,-2218,3587,-2185,5479,4373,9524,-5760,6102,-413,10161,1245,5201
2017-03-09 18:13:00.593370,-2218,3587,-2185,5479,4373,9524,-5760,6102,-413,10161,1245,5201
2017-03-09 18:13:00.601927,-2423,3587,2106,5479,-6195,10177,-6097,6102,-4491,10161,-5709,5201
2017-03-09 18:13:00.606536,-2423,3587,2106,5479,-6195,10177,-6097,6102,-4491,10161,-5709,5201
2017-03-09 18:13:00.613139,-2423,3587,2106,5479,-6195,10177,-6097,6102,-4491,10161,-5709,5201
2017-03-09 18:13:00.613808,-2423,3587,2106,5479,-6195,10177,-6097,6102,-4491,10161,-5709,5201
2017-03-09 18:13:00.626169,-2423,3587,2106,5479,-6195,10177,-6097,6102,-4491,10161,-5709,5201
2017-03-09 18:13:00.629245,7258,3587,-3488,5479,-3044,10177,6893,6102,6990,10161,4388,5201
2017-03-09 18:13:00.635373,7258,3587,-3488,5479,-3044,10177,6893,6102,6990,10161,4388,5201
2017-03-09 18:13:00.655061,7258,3587,-3488,5479,-3044,10177,6893,6102,6990,10161,4388,5201
2017-03-09 18:13:00.671544,7258,3587,-3488,5479,-3044,10177,6893,6102,6990,10161,4388,5201
2017-03-09 18:13:00.678115,-7201,3587,6311,5479,-1157,10177,3746,6102,-7020,10161,-559,5201
2017-03-09 18:13:00.690731,-7201,3587,6311,5479,-1157,10177,3746,6102,-7020,10161,-559,5201
2017-03-09 18:13:00.702690,-7201,3587,6311,5479,-1157,10177,3746,6102,-7020,10161,-559,5201
2017-03-09 18:13:00.710192,-3966,3587,-3773,5479,7981,10177,826,6102,2453,10161,-2339,5201
2017-03-09 18:13:00.727809,-3966,3587,-3773,5479,7981,10177,826,6102,2453,10161,-2339,5201
2017-03-09 18:13:00.735810,2135,3587,1225,5479,7592,10177,2114,6102,5854,10161,-8183,7087
2017-03-09 18:13:00.742086,2135,3587,1225,5479,7592,10177,2114,6102,5854,10161,-8183,7087
2017-03-09 18:13:00.753926,2135,3587,1225,5479,7592,10177,2114,6102,5854,10161,-8183,7087
2017-03-09 18:13:00.760432,2135,3587,1225,5479,7592,10177,2114,6102,5854,10161,-8183,7087
2017-03-09 18:13:00.769063,-23,3587,48,5479,-5360,10177,3564,6102,5096,10161,-3183,7087
2017-03-09 18:13:00.778722,-23,3587,48,5479,-5360,10177,3564,6102,5096,10161,-3183,7087
2017-03-09 18:13:00.797140,-23,3587,48,5479,-5360,10177,3564,6102,5096,10161,-3183,7087
2017-03-09 18:13:00.809737,3353,3587,5000,5479,5025,10604,335,6102,1629,10161,284,7087
2017-03-09 18:13:00.813951,3353,3587,5000,5479,5025,10604,335,6102,1629,10161,284,7087
2017-03-09 18:13:00.825919,-3623,3587,-4168,5479,5187,10604,6979,6102,5098,10161,5167,1847
2017-03-09 18:13:00.827128,-3623,3587,-4168,5479,5187,10604,6979,6102,5098,10161,5167,1847
2017-03-09 18:13:00.844642,-3623,3587,-4168,5479,5187,10604,6979,6102,5098,10161,5167,1847
2017-03-09 18:13:00.867399,-833,3587,-7219,5479,3068,10604,2683,6102,8109,10161,-7750,1847
2017-03-09 18:13:00.867556,-833,3587,-7219,5479,3068,10604,2683,6102,8109,10161,-7750,1847
2017-03-09 18:13:00.874944,6221,3587,5741,5479,-5617,10604,2713,6102,6918,10161,2264,1847
2017-03-09 18:13:00.880418,6221,3587,5741,5479,-5617,10604,2713,6102,6918,10161,2264,1847
2017-03-09 18:13:00.921824,6221,3587,5741,5479,-5617,10604,2713,6102,6918,10161,2264,1847
2017-03-09 18:13:00.922018,6221,3587,5741,5479,-5617,10604,2713,6102,6918,10161,2264,1847
2017-03-09 18:13:00.925407,4148,3587,-3315,5479,1296,10604,1125,6102,-3284,10161,-3324,1847
2017-03-09 18:13:00.930565,4148,3587,-3315,5479,1296,10604,1125,6102,-3284,10161,-3324,1847
2017-03-09 18:13:00.939172,4148,3587,-3315,5479,1296,10604,1125,6102,-3284,10161,-3324,1847
2017-03-09 18:13:00.953385,2077,3587,4303,5479,-4876,10604,5906,6102,-7938,10161,3840,1847
2017-03-09 18:13:00.956990,2077,3587,4303,5479,-4876,10604,5906,6102,-7938,10161,3840,1847
2017-03-09 18:13:00.957826,2077,3587,4303,5479,-4876,10604,5906,6102,-7938,10161,3840,1847
2017-03-09 18:13:00.965636,2077,3587,4303,5479,-4876,10604,5906,6102,-7938,10161,3840,1847
2017-03-09 18:13:00.970443,2077,3587,4303,5479,-4876,10604,5906,6102,-7938,10161,3840,1847
2017-03-09 18:13:00.991688,2077,3587,4303,5479,-4876,10604,5906,6102,-7938,10161,3840,1847
2017-03-09 18:13:00.992307,2077,3587,4303,5479,-4876,10604,5906,6102,-7938,10161,3840,1847
2017-03-09 18:13:01.005354,2077,3587,4303,5479,-4876,10604,5906,6102,-7938,10161,3840,1847
2017-03-09 18:13:01.006251,4302,6170,3233,3377,-310,10604,-3265,6102,7307,10161,265,1847
2017-03-09 18:13:01.017365,4302,6170,3233,3377,-310,10604,-3265,6102,7307,10161,265,1847
2017-03-09 18:13:01.021508,4302,6170,3233,3377,-310,10604,-3265,6102,7307,10161,265,1847
2017-03-09 18:13:01.027295,4302,6170,3233,3377,-310,10604,-3265,6102,7307,10161,265,1847
2017-03-09 18:13:01.089559,4302,6170,3233,3377,-310,10604,-3265,6102,7307,10161,265,1847
2017-03-09 18:13:01.090126,4302,6170,3233,3377,-310,10604,-3265,6102,7307,10161,265,1847
2017-03-09 18:13:01.096029,4302,6170,3233,3377,-310,10604,-3265,6102,7307,10161,265,1847
2017-03-09 18:13:01.106815,4302,6170,3233,3377,-310,10604,-3265,6102,7307,10161,265,1847
2017-03-09 18:13:01.111423,4302,6170,3233,3377,-310,10604,-3265,6102,7307,10161,265,1847
2017-03-09 18:13:01.120707,4302,6170,3233,3377,-310,10604,-3265,6102,7307,10161,265,1847
2017-03-09 18:13:01.127512,4302,6170,3233,3377,-310,10604,-3265,6102,7307,10161,265,1847
2017-03-09 18:13:01.140113,4302,6170,3233,3377,-310,10604,-3265,6102,7307,10161,265,1847
2017-03-09 18:13:01.148959,4302,6170,3233,3377,-310,10604,-3265,6102,7307,10161,265,1847
2017-03-09 18:13:01.155439,4302,6170,3233,3377,-310,10604,-3265,6102,7307,10161,265,1847
2017-03-09 18:13:01.163148,5763,6170,-1101,3377,-1309,10604,7425,6102,3835,10161,8084,1847
2017-03-09 18:13:01.174498,5763,6170,-1101,3377,-1309,10604,7425,6102,3835,10161,8084,1847
2017-03-09 18:13:01.174862,5763,6170,-1101,3377,-1309,10604,7425,6102,3835,10161,8084,1847
2017-03-09 18:13:01.181963,1717,6170,-1684,3377,4469,10604,-7946,6102,7512,10161,-5960,1847
2017-03-09 18:13:01.190324,-4096,6170,3219,3377,1904,10604,-4776,6102,5363,10161,5944,1847
2017-03-09 18:13:01.197740,5918,6170,7807,3377,5896,10604,7098,6102,2860,10161,-134,1847
2017-03-09 18:13:01.206625,5918,6170,7807,3377,5896,10604,7098,6102,2860,10161,-134,1847
2017-03-09 18:13:01.207351,5918,6170,7807,3377,5896,10604,7098,6102,2860,10161,-134,1847
2017-03-09 18:13:01.215694,5918,6170,7807,3377,5896,10604,7098,6102,2860,10161,-134,1847
2017-03-09 18:13:01.230258,5918,6170,7807,3377,5896,10604,7098,6102,2860,10161,-134,1847
2017-03-09 18:13:01.234747,-2717,6170,1224,3377,2447,10604,6207,6102,103,10161,-7482,1847
2017-03-09 18:13:01.241409,-2717,6170,1224,3377,2447,10604,6207,6102,103,10161,-7482,1847
2017-03-09 18:13:01.250597,-2717,6170,1224,3377,2447,10604,6207,6102,103,10161,-7482,1847
2017-03-09 18:13:01.261749,-2717,6170,1224,3377,2447,10604,6207,6102,103,10161,-7482,1847
2017-03-09 18:13:01.275555,2362,6170,-4920,3377,6378,10604,-4994,6102,-6684,10161,-4314,1847
2017-03-09 18:13:01.280031,2362,6170,-4920,3377,6378,10604,-4994,6102,-6684,10161,-4314,1847
2017-03-09 18:13:01.292323,2362,6170,-4920,3377,6378,10604,-4994,6102,-6684,10161,-4314,1847
2017-03-09 18:13:01.299564,6511,6170,6838,3377,7980,10604,6594,6102,2797,10161,6211,1847
2017-03-09 18:13:01.311021,6511,6170,6838,3377,7980,10604,6594,6102,2797,10161,6211,1847
2017-03-09 18:13:01.324011,6511,6170,6838,3377,7980,10604,6594,6102,2797,10161,6211,1847
2017-03-09 18:13:01.331977,7070,6170,-5581,3377,-952,10604,-293,6102,1704,10161,-3983,1847
2017-03-09 18:13:01.345357,-5335,6170,-2654,3377,-2751,10604,-3063,6102,-6452,10161,4682,1847
2017-03-09 18:13:01.360641,-5335,6170,-2654,3377,-2751,10604,-3063,6102,-6452,10161,4682,1847
2017-03-09 18:13:01.360824,-5335,6170,-2654,3377,-2751,10604,-3063,6102,-6452,10161,4682,1847
2017-03-09 18:13:01.377823,5901,6170,5427,3377,3571,10604,-2274,6102,7900,10161,6403,1847
2017-03-09 18:13:01.382681,5901,6170,5427,3377,3571,10604,-2274,6102,7900,10161,6403,1847
2017-03-09 18:13:01.397123,-6564,6170,-4456,3377,6144,10604,-5667,6102,-4860,10161,-2940,1847
2017-03-09 18:13:01.406282,-6564,6170,-4456,3377,6144,10604,-5667,6102,-4860,10161,-2940,1847
2017-03-09 18:13:01.411955,-6564,6170,-4456,3377,6144,10604,-5667,6102,-4860,10161,-2940,1847
2017-03-09 18:13:01.417737,2577,6170,761,3377,7979,10604,-4051,6102,-6824,10161,6625,1847
2017-03-09 18:13:01.427859,2577,6170,761,3377,7979,10604,-4051,6102,-6824,10161,6625,1847
2017-03-09 18:13:01.433595,2577,6170,761,3377,7979,10604,-4051,6102,-6824,10161,6625,1847
2017-03-09 18:13:01.447443,2577,6170,761,3377,7979,10604,-4051,6102,-6824,10161,6625,1847
2017-03-09 18:13:01.453427,-6763,6170,-1326,3377,2486,10604,1264,6102,-3243,10161,-5660,1847
2017-03-09 18:13:01.469727,-6763,6170,-1326,3377,2486,10604,1264,6102,-3243,10161,-5660,1847
2017-03-09 18:13:01.479309,-2686,6170,5833,3377,-3462,10604,4651,6102,-5135,10161,-6258,1847
2017-03-09 18:13:01.488251,-2686,6170,5833,3377,-3462,10604,4651,6102,-5135,10161,-6258,1847
2017-03-09 18:13:01.516796,-2686,6170,5833,3377,-3462,10604,4651,6102,-5135,10161,-6258,1847
2017-03-09 18:13:01.518863,69,6170,6136,3377,2934,10604,3267,6102,-7251,10161,3709,1847
2017-03-09 18:13:01.531488,69,6170,6136,3377,2934,10604,3267,6102,-7251,10161,3709,1847
2017-03-09 18:13:01.531999,69,6170,6136,3377,2934,10604,3267,6102,-7251,10161,3709,1847
2017-03-09 18:13:01.539324,-5170,6170,2774,3377,1635,10604,-2284,6102,-162,10161,-33,1847
2017-03-09 18:13:01.545816,-5170,6170,2774,3377,1635,10604,-2284,6102,-162,10161,-33,1847
2017-03-09 18:13:01.551978,-5170,6170,2774,3377,1635,10604,-2284,6102,-162,10161,-33,1847
2017-03-09 18:13:01.562010,8110,6170,5867,3377,1604,10604,-5637,6102,-4765,10161,-6538,10359
2017-03-09 18:13:01.569880,8110,6170,5867,3377,1604,10604,-5637,6102,-4765,10161,-6538,10359
2017-03-09 18:13:01.577919,8110,6170,5867,3377,1604,10604,-5637,6102,-4765,10161,-6538,10359
2017-03-09 18:13:01.585692,8110,6170,5867,3377,1604,10604,-5637,6102,-4765,10161,-6538,10359
2017-03-09 18:13:01.596246,1804,6170,4356,3377,-518,10604,7547,6102,-1802,10161,-2962,10359
2017-03-09 18:13:01.602397,1804,6170,4356,3377,-518,10604,7547,6102,-1802,10161,-2962,10359
2017-03-09 18:13:01.614973,1804,6170,4356,3377,-518,10604,7547,6102,-1802,10161,-2962,10359
2017-03-09 18:13:01.621691,1804,6170,4356,3377,-518,10604,7547,6102,-1802,10161,-2962,10359
2017-03-09 18:13:01.634105,1804,6170,4356,3377,-518,10604,7547,6102,-1802,10161,-2962,10359
2017-03-09 18:13:01.634959,522,6170,3124,3377,-764,10604,-5569,6102,8040,10161,-7944,12773
2017-03-09 18:13:01.646226,522,6170,3124,3377,-764,10604,-5569,6102,8040,10161,-7944,12773
2017-03-09 18:13:01.664138,522,6170,3124,3377,-764,10604,-5569,6102,8040,10161,-7944,12773
2017-03-09 18:13:01.670667,522,6170,3124,3377,-764,10604,-5569,6102,8040,10161,-7944,12773
2017-03-09 18:13:01.682288,522,6170,3124,3377,-764,10604,-5569,6102,8040,10161,-7944,12773
2017-03-09 18:13:01.697794,807,6170,-1822,3377,-7124,3109,-7159,6102,-3219,10161,7493,12773
2017-03-09 18:13:01.702725,807,6170,-1822,3377,-7124,3109,-7159,6102,-3219,10161,7493,12773
2017-03-09 18:13:01.709657,807,6170,-1822,3377,-7124,3109,-7159,6102,-3219,10161,7493,12773
2017-03-09 18:13:01.721400,807,6170,-1822,3377,-7124,3109,-7159,6102,-3219,10161,7493,12773
2017-03-09 18:13:01.726250,807,6170,-1822,3377,-7124,3109,-7159,6102,-3219,10161,7493,12773
2017-03-09 18:13:01.749564,807,6170,-1822,3377,-7124,3109,-7159,6102,-3219,10161,7493,12773
2017-03-09 18:13:01.750474,5711,6170,1315,3377,-7690,3109,-1992,6102,1776,10161,-1456,12773
2017-03-09 18:13:01.759137,5711,6170,1315,3377,-7690,3109,-1992,6102,1776,10161,-1456,12773
2017-03-09 18:13:01.771875,5711,6170,1315,3377,-7690,3109,-1992,6102,1776,10161,-1456,12773
2017-03-09 18:13:01.772072,5711,6170,1315,3377,-7690,3109,-1992,6102,1776,10161,-1456,12773
2017-03-09 18:13:01.787067,6755,6170,-198,3377,-5358,3109,-5244,6102,6180,10161,-2962,12773
2017-03-09 18:13:01.798612,-6761,6170,-1296,3377,3624,3109,1794,6102,-4637,10161,5674,12773
2017-03-09 18:13:01.805276,-6761,6170,-1296,3377,3624,3109,1794,6102,-4637,10161,5674,12773
2017-03-09 18:13:01.822302,-6761,6170,-1296,3377,3624,3109,1794,6102,-4637,10161,5674,12773
2017-03-09 18:13:01.840152,-6761,6170,-1296,3377,3624,3109,1794,6102,-4637,10161,5674,12773
2017-03-09 18:13:01.849818,-6761,6170,-1296,3377,3624,3109,1794,6102,-4637,10161,5674,12773
2017-03-09 18:13:01.858701,-6761,6170,-1296,3377,3624,3109,1794,6102,-4637,10161,5674,12773
2017-03-09 18:13:01.865079,-343,6170,-2779,3377,-1774,3109,-5541,6102,-59,10161,3620,12773
2017-03-09 18:13:01.877254,4701,6170,-3904,3377,-6712,3109,-382,6102,-568,10161,104,12773
2017-03-09 18:13:01.877403,4701,6170,-3904,3377,-6712,3109,-382,6102,-568,10161,104,12773
2017-03-09 18:13:01.894537,4701,6170,-3904,3377,-6712,3109,-382,6102,-568,10161,104,12773
2017-03-09 18:13:01.909097,4701,6170,-3904,3377,-6712,3109,-382,6102,-568,10161,104,12773
2017-03-09 18:13:01.919994,4701,6170,-3904,3377,-6712,3109,-382,6102,-568,10161,104,12773
2017-03-09 18:13:01.927214,4701,6170,-3904,3377,-6712,3109,-382,6102,-568,10161,104,12773
2017-03-09 18:13:01.936704,-3941,6170,-2918,3377,-8022,3109,1608,6102,-7177,10161,3899,12773
2017-03-09 18:13:01.941454,894,6170,2741,5309,1095,3109,-1944,6102,5106,10161,4522,12773
2017-03-09 18:13:01.955098,894,6170,2741,5309,1095,3109,-1944,6102,5106,10161,4522,12773
2017-03-09 18:13:01.955449,894,6170,2741,5309,1095,3109,-1944,6102,5106,10161,4522,12773
2017-03-09 18:13:01.973248,894,6170,2741,5309,1095,3109,-1944,6102,5106,10161,4522,12773
2017-03-09 18:13:01.983037,-3630,11954,-5039,5309,4801,3109,-5020,6102,7572,10161,4425,12773
2017-03-09 18:13:01.990955,-3630,11954,-5039,5309,4801,3109,-5020,6102,7572,10161,4425,12773
2017-03-09 18:13:01.998987,-3630,11954,-5039,5309,4801,3109,-5020,6102,7572,10161,4425,12773
2017-03-09 18:13:02.010539,-3630,11954,-5039,5309,4801,3109,-5020,6102,7572,10161,4425,12773
2017-03-09 18:13:02.016490,-3630,11954,-5039,5309,4801,3109,-5020,6102,7572,10161,4425,12773
2017-03-09 18:13:02.022117,-3630,11954,-5039,5309,4801,3109,-5020,6102,7572,10161,4425,12773
2017-03-09 18:13:02.026777,-3630,11954,-5039,5309,4801,3109,-5020,6102,7572,10161,4425,12773
2017-03-09 18:13:02.043007,-3630,11954,-5039,5309,4801,3109,-5020,6102,7572,10161,4425,12773
2017-03-09 18:13:02.050064,-5439,11954,4348,5309,1247,3109,-5164,6102,6088,10161,4763,12773
2017-03-09 18:13:02.063975,-6337,11954,5872,5309,3626,3109,7481,6102,8176,10161,-2302,350
2017-03-09 18:13:02.071832,-6337,11954,5872,5309,3626,3109,7481,6102,8176,10161,-2302,350
2017-03-09 18:13:02.076881,-6337,11954,5872,5309,3626,3109,7481,6102,8176,10161,-2302,350
2017-03-09 18:13:02.089670,-6337,11954,5872,5309,3626,3109,7481,6102,8176,10161,-2302,350
2017-03-09 18:13:02.094029,-4219,11954,-5316,5309,2498,3109,3262,6102,-5832,10161,-3905,350
2017-03-09 18:13:02.100234,-4219,11954,-5316,5309,2498,3109,3262,6102,-5832,10161,-3905,350
2017-03-09 18:13:02.110721,-4219,11954,-5316,5309,2498,3109,3262,6102,-5832,10161,-3905,350
2017-03-09 18:13:02.115036,-4219,11954,-5316,5309,2498,3109,3262,6102,-5832,10161,-3905,350
2017-03-09 18:13:02.128397,1766,11954,-1720,5309,-6435,3109,-6738,6102,1921,10161,7869,350
2017-03-09 18:13:02.137380,-6581,11954,-1722,5309,-6751,3109,1580,6102,-84,10161,-3882,350
2017-03-09 18:13:02.145677,-6581,11954,-1722,5309,-6751,3109,1580,6102,-84,10161,-3882,350
2017-03-09 18:13:02.159354,-6581,11954,-1722,5309,-6751,3109,1580,6102,-84,10161,-3882,350
2017-03-09 18:13:02.170796,-6581,11954,-1722,5309,-6751,3109,1580,6102,-84,10161,-3882,350
2017-03-09 18:13:02.176124,8010,11954,304,5309,-3625,3109,3990,6102,2162,10161,-4972,350
2017-03-09 18:13:02.181577,8010,11954,304,5309,-3625,3109,3990,6102,2162,10161,-4972,350
2017-03-09 18:13:02.193620,8010,11954,304,5309,-3625,3109,3990,6102,2162,10161,-4972,350
2017-03-09 18:13:02.198061,8010,11954,304,5309,-3625,3109,3990,6102,2162,10161,-4972,350
2017-03-09 18:13:02.207977,8010,11954,304,5309,-3625,3109,3990,6102,2162,10161,-4972,350
2017-03-09 18:13:02.214787,8010,11954,304,5309,-3625,3109,3990,6102,2162,10161,-4972,350
2017-03-09 18:13:02.224593,8010,11954,304,5309,-3625,3109,3990,6102,2162,10161,-4972,350
2017-03-09 18:13:02.231680,8010,11954,304,5309,-3625,3109,3990,6102,2162,10161,-4972,350
2017-03-09 18:13:02.241829,8010,11954,304,5309,-3625,3109,3990,6102,2162,10161,-4972,350
2017-03-09 18:13:02.251966,3456,11954,-2129,5309,434,3109,1405,6102,-7718,10161,-3718,350
2017-03-09 18:13:02.252119,3456,11954,-2129,5309,434,3109,1405,6102,-7718,10161,-3718,350
2017-03-09 18:13:02.263157,3456,11954,-2129,5309,434,3109,1405,6102,-7718,10161,-3718,350
2017-03-09 18:13:02.283390,-5516,11954,-5497,5309,-3207,3109,55,6102,3999,10161,-3244,350
2017-03-09 18:13:02.287456,-5516,11954,-5497,5309,-3207,3109,55,6102,3999,10161,-3244,350
2017-03-09 18:13:02.302448,90,11954,953,5309,6607,3109,-5402,6102,-7983,10161,1267,350
2017-03-09 18:13:02.306322,-6662,11954,-1528,5309,2658,3109,-2474,6102,288,10161,-5370,350
2017-03-09 18:13:02.311814,6499,11954,-720,5309,-2796,3109,-6531,6102,-7814,10161,6825,350
2017-03-09 18:13:02.323516,6499,11954,-720,5309,-2796,3109,-6531,6102,-7814,10161,6825,350
2017-03-09 18:13:02.345212,6499,11954,-720,5309,-2796,3109,-6531,6102,-7814,10161,6825,350
2017-03-09 18:13:02.353341,6499,11954,-720,5309,-2796,3109,-6531,6102,-7814,10161,6825,350
2017-03-09 18:13:02.371511,6499,11954,-720,5309,-2796,3109,-6531,6102,-7814,10161,6825,350
2017-03-09 18:13:02.381745,2114,11954,3662,5309,-3188,3109,4808,6102,-3322,10161,6221,350
2017-03-09 18:13:02.391459,2136,11954,-7464,5309,-4831,3109,-4524,6102,6969,10161,-7089,350
2017-03-09 18:13:02.399920,6850,11954,7743,5309,-5470,3109,-1530,6102,-1924,10161,-3376,350
2017-03-09 18:13:02.410057,6850,11954,7743,5309,-5470,3109,-1530,6102,-1924,10161,-3376,350
2017-03-09 18:13:02.416503,-1685,11954,-6885,5309,3714,3109,-174,6102,6665,10161,-6180,350
2017-03-09 18:13:02.426796,-1685,11954,-6885,5309,3714,3109,-174,6102,6665,10161,-6180,350
2017-03-09 18:13:02.439358,42,11954,5251,5309,7966,3109,-6302,6102,7189,10161,6592,350
2017-03-09 18:13:02.448076,42,11954,5251,5309,7966,3109,-6302,6102,7189,10161,6592,350
2017-03-09 18:13:02.454793,5909,11954,4381,5309,1422,3109,-1248,6102,4046,10161,-4065,350
2017-03-09 18:13:02.467857,5909,11954,4381,5309,1422,3109,-1248,6102,4046,10161,-4065,350
2017-03-09 18:13:02.475122,5909,11954,4381,5309,1422,3109,-1248,6102,4046,10161,-4065,350
2017-03-09 18:13:02.493205,-4594,11954,-593,5309,2401,3109,5677,6102,-2778,10161,-300,350
2017-03-09 18:13:02.498085,-4594,11954,-593,5309,2401,3109,5677,6102,-2778,10161,-300,350
2017-03-09 18:13:02.509159,-4594,11954,-593,5309,2401,3109,5677,6102,-2778,10161,-300,350
2017-03-09 18:13:02.518671,-4594,11954,-593,5309,2401,3109,5677,6102,-2778,10161,-300,350
2017-03-09 18:13:02.519437,-4594,11954,-593,5309,2401,3109,5677,6102,-2778,10161,-300,350
2017-03-09 18:13:02.538813,-3718,11954,-7979,5309,6855,3109,-5611,6102,2542,10161,-1483,350
2017-03-09 18:13:02.550344,-1808,7997,3540,5309,-4922,3109,-5188,6102,3000,10161,5007,350
2017-03-09 18:13:02.555294,-1808,7997,3540,5309,-4922,3109,-5188,6102,3000,10161,5007,350
2017-03-09 18:13:02.573250,-1808,7997,3540,5309,-4922,3109,-5188,6102,3000,10161,5007,350
2017-03-09 18:13:02.586179,-5734,7997,-375,5309,-6969,3109,5112,6102,463,10161,-7502,350
2017-03-09 18:13:02.587049,-5734,7997,-375,5309,-6969,3109,5112,6102,463,10161,-7502,350
2017-03-09 18:13:02.599561,1805,7997,398,5309,6951,3109,-395,6102,7607,10161,2886,350
2017-03-09 18:13:02.605910,1805,7997,398,5309,6951,3109,-395,6102,7607,10161,2886,350
2017-03-09 18:13:02.626340,1805,7997,398,5309,6951,3109,-395,6102,7607,10161,2886,350
2017-03-09 18:13:02.633439,1805,7997,398,5309,6951,3109,-395,6102,7607,10161,2886,350
2017-03-09 18:13:02.645602,1805,7997,398,5309,6951,3109,-395,6102,7607,10161,2886,350
2017-03-09 18:13:02.650937,1805,7997,398,5309,6951,3109,-395,6102,7607,10161,2886,350
2017-03-09 18:13:02.659370,1805,7997,398,5309,6951,3109,-395,6102,7607,10161,2886,350
2017-03-09 18:13:02.671099,1805,7997,398,5309,6951,3109,-395,6102,7607,10161,2886,350
2017-03-09 18:13:02.678200,1805,7997,398,5309,6951,3109,-395,6102,7607,10161,2886,350
2017-03-09 18:13:02.686375,6537,7997,1780,7931,-6630,3109,-6476,6102,-448,10161,3039,350
2017-03-09 18:13:02.694914,6537,7997,1780,7931,-6630,3109,-6476,6102,-448,10161,3039,350
2017-03-09 18:13:02.702592,6537,7997,1780,7931,-6630,3109,-6476,6102,-448,10161,3039,350
2017-03-09 18:13:02.710395,6537,7997,1780,7931,-6630,3109,-6476,6102,-448,10161,3039,350
2017-03-09 18:13:02.717547,6537,7997,1780,7931,-6630,3109,-6476,6102,-448,10161,3039,350
2017-03-09 18:13:02.743469,6537,7997,1780,7931,-6630,3109,-6476,6102,-448,10161,3039,350
2017-03-09 18:13:02.743872,6537,7997,1780,7931,-6630,3109,-6476,6102,-448,10161,3039,350
2017-03-09 18:13:02.750765,6537,7997,1780,7931,-6630,3109,-6476,6102,-448,10161,3039,350
2017-03-09 18:13:02.754966,-4285,7997,4947,7931,5228,3109,1924,6102,-1276,10161,-5640,350
2017-03-09 18:13:02.767906,-4285,7997,4947,7931,5228,3109,1924,6102,-1276,10161,-5640,350
2017-03-09 18:13:02.772934,-4285,7997,4947,7931,5228,3109,1924,6102,-1276,10161,-5640,350
2017-03-09 18:13:02.791464,-4285,7997,4947,7931,5228,3109,1924,6102,-1276,10161,-5640,350
2017-03-09 18:13:02.795780,-4285,7997,4947,7931,5228,3109,1924,6102,-1276,10161,-5640,350
2017-03-09 18:13:02.804038,7857,7997,6599,7931,2107,3109,4100,6102,-7704,10161,2714,350
2017-03-09 18:13:02.812968,7857,7997,6599,7931,2107,3109,4100,6102,-7704,10161,2714,350
2017-03-09 18:13:02.836925,7857,7997,6599,7931,2107,3109,4100,6102,-7704,10161,2714,350
2017-03-09 18:13:02.842548,7857,7997,6599,7931,2107,3109,4100,6102,-7704,10161,2714,350
2017-03-09 18:13:02.853424,7857,7997,6599,7931,2107,3109,4100,6102,-7704,10161,2714,350
2017-03-09 18:13:02.871055,7857,7997,6599,7931,2107,3109,4100,6102,-7704,10161,2714,350
2017-03-09 18:13:02.901110,-5772,7997,-6392,7931,5234,3109,8179,1455,1954,10161,-664,350
2017-03-09 18:13:02.901188,-5772,7997,-6392,7931,5234,3109,8179,1455,1954,10161,-664,350
2017-03-09 18:13:02.914442,-97,7997,-1210,7931,7421,3109,-3788,1455,-136,10161,4755,350
2017-03-09 18:13:02.931239,-97,7997,-1210,7931,7421,3109,-3788,1455,-136,10161,4755,350
2017-03-09 18:13:02.932019,-97,7997,-1210,7931,7421,3109,-3788,1455,-136,10161,4755,350
2017-03-09 18:13:02.952996,6333,7997,-8054,7931,-5342,3109,-6926,1455,5798,10161,8070,350
2017-03-09 18:13:02.974959,6333,7997,-8054,7931,-5342,3109,-6926,1455,5798,10161,8070,350
2017-03-09 18:13:02.989094,2076,7997,1307,7931,-3337,3109,-2739,14268,3682,10161,2165,350
2017-03-09 18:13:02.995144,2076,7997,1307,7931,-3337,3109,-2739,14268,3682,10161,2165,350
2017-03-09 18:13:03.014432,2076,7997,1307,7931,-3337,3109,-2739,14268,3682,10161,2165,350
2017-03-09 18:13:03.036834,4468,7997,6852,7931,-7948,3109,-2764,14268,5175,10161,-8029,350
2017-03-09 18:13:03.043857,4468,7997,6852,7931,-7948,3109,-2764,14268,5175,10161,-8029,350
2017-03-09 18:13:03.057774,4468,7997,6852,7931,-7948,3109,-2764,14268,5175,10161,-8029,350
2017-03-09 18:13:03.076107,7012,7997,-3135,7931,8127,3109,-3456,14268,-3577,10161,-3487,350
2017-03-09 18:13:03.076815,7012,7997,-3135,7931,8127,3109,-3456,14268,-3577,10161,-3487,350
2017-03-09 18:13:03.090968,7012,7997,-3135,7931,8127,3109,-3456,14268,-3577,10161,-3487,350
2017-03-09 18:13:03.108542,-364,7997,5445,7931,8117,11049,1185,14268,7731,10161,6922,350
2017-03-09 18:13:03.117690,-364,7997,5445,7931,8117,11049,1185,14268,7731,10161,6922,350
2017-03-09 18:13:03.125863,-364,7997,5445,7931,8117,11049,1185,14268,7731,10161,6922,350
2017-03-09 18:13:03.138957,3182,7997,6619,7931,5050,11049,-6547,14268,5506,10161,-896,350
2017-03-09 18:13:03.158307,-6094,7997,-6004,7931,-3837,5201,-3931,14268,-2791,10161,-3569,350
2017-03-09 18:13:03.182601,-6094,7997,-6004,7931,-3837,5201,-3931,14268,-2791,10161,-3569,350
2017-03-09 18:13:03.193850,-2032,7997,-1522,7931,-7724,5201,5405,14268,5550,10161,5023,350
2017-03-09 18:13:03.201589,-3488,7997,-4786,7931,-3884,5201,-7378,14268,-5730,10161,7613,350
2017-03-09 18:13:03.209707,-3488,7997,-4786,7931,-3884,5201,-7378,14268,-5730,10161,7613,350
2017-03-09 18:13:03.219526,-3488,7997,-4786,7931,-3884,5201,-7378,14268,-5730,10161,7613,350
2017-03-09 18:13:03.230550,-3488,7997,-4786,7931,-3884,5201,-7378,14268,-5730,10161,7613,350
2017-03-09 18:13:03.239275,-3488,7997,-4786,7931,-3884,5201,-7378,14268,-5730,10161,7613,350
2017-03-09 18:13:03.249496,-3488,7997,-4786,7931,-3884,5201,-7378,14268,-5730,10161,7613,350
2017-03-09 18:13:03.269844,-2561,7997,-2299,7931,6951,5201,-7220,14268,-1769,10161,-7408,350
2017-03-09 18:13:03.283939,-2561,7997,-2299,7931,6951,5201,-7220,14268,-1769,10161,-7408,350
2017-03-09 18:13:03.291710,-2561,7997,-2299,7931,6951,5201,-7220,14268,-1769,10161,-7408,350
2017-03-09 18:13:03.301173,-6957,7997,-6261,7931,7855,5201,4982,14268,7699,10161,5565,350
2017-03-09 18:13:03.307011,-6957,7997,-6261,7931,7855,5201,4982,14268,7699,10161,5565,350
2017-03-09 18:13:03.314604,-6957,7997,-6261,7931,7855,5201,4982,14268,7699,10161,5565,350
2017-03-09 18:13:03.326195,-6957,7997,-6261,7931,7855,5201,4982,14268,7699,10161,5565,350
2017-03-09 18:13:03.332083,-6831,7997,-3735,7931,-6018,5201,6210,14268,3008,10161,-6648,350
2017-03-09 18:13:03.341745,-6831,7997,-3735,7931,-6018,5201,6210,14268,3008,10161,-6648,350
2017-03-09 18:13:03.361477,-6831,7997,-3735,7931,-6018,5201,6210,14268,3008,10161,-6648,350
2017-03-09 18:13:03.374705,7514,7997,-5341,5815,8041,5201,1252,14268,5696,10161,6019,350
2017-03-09 18:13:03.386578,7514,7997,-5341,5815,8041,5201,1252,14268,5696,10161,6019,350
2017-03-09 18:13:03.401671,7514,7997,-5341,5815,8041,5201,1252,14268,5696,10161,6019,350
2017-03-09 18:13:03.410614,7514,7997,-5341,5815,8041,5201,1252,14268,5696,10161,6019,350
2017-03-09 18:13:03.417179,7514,7997,-5341,5815,8041,5201,1252,14268,5696,10161,6019,350
2017-03-09 18:13:03.433363,7514,7997,-5341,5815,8041,5201,1252,14268,5696,10161,6019,350
2017-03-09 18:13:03.457167,-4794,7997,-5123,5815,-316,5201,5764,14268,6166,10161,-3878,350
2017-03-09 18:13:03.476217,-4794,7997,-5123,5815,-316,5201,5764,14268,6166,10161,-3878,350
2017-03-09 18:13:03.493345,-4794,7997,-5123,5815,-316,5201,5764,14268,6166,10161,-3878,350
2017-03-09 18:13:03.502597,-5756,8130,-3039,5815,3905,5201,906,14268,-4017,10161,-6044,350
2017-03-09 18:13:03.508202,-5756,8130,-3039,5815,3905,5201,906,14268,-4017,10161,-6044,350
2017-03-09 18:13:03.521132,-5756,8130,-3039,5815,3905,5201,906,14268,-4017,10161,-6044,350
2017-03-09 18:13:03.527502,-5756,8130,-3039,5815,3905,5201,906,14268,-4017,10161,-6044,350
2017-03-09 18:13:03.554409,-5756,8130,-3039,5815,3905,5201,906,14268,-4017,10161,-6044,350
2017-03-09 18:13:03.562621,-5756,8130,-3039,5815,3905,5201,906,14268,-4017,10161,-6044,350
2017-03-09 18:13:03.577432,-7807,8130,-5667,5815,-3646,5201,-681,14268,6111,10161,5843,350
2017-03-09 18:13:03.587396,-7807,8130,-5667,5815,-3646,5201,-681,14268,6111,10161,5843,350
2017-03-09 18:13:03.611413,-7807,8130,-5667,5815,-3646,5201,-681,14268,6111,10161,5843,350
2017-03-09 18:13:03.625828,-7807,8130,-5667,5815,-3646,5201,-681,14268,6111,10161,5843,350
2017-03-09 18:13:03.641780,7679,13342,6705,5815,-1503,5201,-885,14268,-673,10161,-3436,2546
2017-03-09 18:13:03.651495,7679,13342,6705,5815,-1503,5201,-885,14268,-673,10161,-3436,2546
2017-03-09 18:13:03.666660,7679,13342,6705,5815,-1503,5201,-885,14268,-673,10161,-3436,2546
2017-03-09 18:13:03.675414,3786,13342,7093,5815,-6313,5201,6508,14268,-3151,10161,-6773,2546
2017-03-09 18:13:03.689139,3786,13342,7093,5815,-6313,5201,6508,14268,-3151,10161,-6773,2546
2017-03-09 18:13:03.695141,3786,13342,7093,5815,-6313,5201,6508,14268,-3151,10161,-6773,2546
2017-03-09 18:13:03.704044,-4070,13342,-6122,5815,-7338,5201,-3515,14268,-4376,10161,5682,2546
2017-03-09 18:13:03.713646,-4070,13342,-6122,5815,-7338,5201,-3515,14268,-4376,10161,5682,2546
2017-03-09 18:13:03.724204,-4070,13342,-6122,5815,-7338,5201,-3515,14268,-4376,10161,5682,2546
2017-03-09 18:13:03.736226,5144,13342,6567,5815,1846,5201,5502,14268,608,10161,-7744,2546
2017-03-09 18:13:03.741936,5144,13342,6567,5815,1846,5201,5502,14268,608,10161,-7744,2546
2017-03-09 18:13:03.758769,5144,13342,6567,5815,1846,5201,5502,14268,608,10161,-7744,2546
2017-03-09 18:13:03.780436,5144,13342,6567,5815,1846,5201,5502,14268,608,10161,-7744,2546
2017-03-09 18:13:03.789251,7820,13342,5934,5815,4811,5201,-1102,14268,6026,369,3235,2546
2017-03-09 18:13:03.806709,7820,13342,5934,5815,4811,5201,-1102,14268,6026,369,3235,2546
2017-03-09 18:13:03.822387,7820,13342,5934,5815,4811,5201,-1102,14268,6026,369,3235,2546
2017-03-09 18:13:03.838944,7820,13342,5934,5815,4811,5201,-1102,14268,6026,369,3235,2546
2017-03-09 18:13:03.855441,7820,13342,5934,5815,4811,5201,-1102,14268,6026,369,3235,2546
2017-03-09 18:13:03.869843,7820,13342,5934,5815,4811,5201,-1102,14268,6026,369,3235,2546
2017-03-09 18:13:03.880089,5404,5908,-5355,5815,-2834,5201,-7004,14268,4129,369,4179,2546
2017-03-09 18:13:03.894190,5404,5908,-5355,5815,-2834,5201,-7004,14268,4129,369,4179,2546
2017-03-09 18:13:03.894279,5404,5908,-5355,5815,-2834,5201,-7004,14268,4129,369,4179,2546
2017-03-09 18:13:03.913526,5404,5908,-5355,5815,-2834,5201,-7004,14268,4129,369,4179,2546
2017-03-09 18:13:03.928309,-2711,5908,4758,5815,-4794,5201,-437,14268,5382,369,-223,2546
2017-03-09 18:13:03.945964,-4926,5908,-1647,5815,5488,5201,-6919,14268,-630,369,-750,10025
2017-03-09 18:13:03.959734,-4926,5908,-1647,5815,5488,5201,-6919,14268,-630,369,-750,10025
2017-03-09 18:13:03.966361,-4926,5908,-1647,5815,5488,5201,-6919,14268,-630,369,-750,10025
2017-03-09 18:13:03.983660,-4926,5908,-1647,5815,5488,5201,-6919,14268,-630,369,-750,10025
2017-03-09 18:13:04.001649,-7062,5908,3222,5815,7434,5201,7866,14268,-4904,369,-6350,10025
2017-03-09 18:13:04.036191,-5817,5908,-7757,5815,3053,5201,2129,14268,1565,369,-8110,10025
2017-03-09 18:13:04.050844,-5817,5908,-7757,5815,3053,5201,2129,14268,1565,369,-8110,10025
2017-03-09 18:13:04.059074,-7863,5908,-7078,5815,3466,5201,-4560,14268,-2664,369,-689,10025
2017-03-09 18:13:04.084556,-7863,5908,-7078,5815,3466,5201,-4560,14268,-2664,369,-689,10025
2017-03-09 18:13:04.089757,-7863,5908,-7078,5815,3466,5201,-4560,14268,-2664,369,-689,10025
2017-03-09 18:13:04.103782,333,5908,221,5815,278,5201,-7279,14268,4815,369,-5171,10025
2017-03-09 18:13:04.122277,333,5908,221,5815,278,5201,-7279,14268,4815,369,-5171,10025
2017-03-09 18:13:04.142223,-1139,5908,-2933,5815,6574,5201,-5853,1494,3375,369,5292,10025
2017-03-09 18:13:04.155654,-867,5908,7937,5815,384,5201,4671,1494,-4006,369,-4849,10025
2017-03-09 18:13:04.176457,-867,5908,7937,5815,384,5201,4671,1494,-4006,369,-4849,10025
2017-03-09 18:13:04.195380,7833,5908,4300,5815,-2386,5201,-6454,1494,-2948,369,-2273,3949
2017-03-09 18:13:04.195548,7833,5908,4300,5815,-2386,5201,-6454,1494,-2948,369,-2273,3949
2017-03-09 18:13:04.201385,7833,5908,4300,5815,-2386,5201,-6454,1494,-2948,369,-2273,3949
2017-03-09 18:13:04.217867,-1769,5908,-1484,15098,2974,5201,-3676,1494,-2163,369,-2591,3949
2017-03-09 18:13:04.221751,-1769,5908,-1484,15098,2974,5201,-3676,1494,-2163,369,-2591,3949
2017-03-09 18:13:04.233548,-1769,5908,-1484,15098,2974,5201,-3676,1494,-2163,369,-2591,3949
2017-03-09 18:13:04.239043,-1866,5908,1819,15098,2987,5201,7936,1494,-4322,369,-1831,3949
2017-03-09 18:13:04.258900,-1866,5908,1819,15098,2987,5201,7936,1494,-4322,369,-1831,3949
2017-03-09 18:13:04.275027,1875,5908,-7061,15098,-2599,5201,5161,1494,8107,369,-5328,3339
2017-03-09 18:13:04.289739,1875,5908,-7061,15098,-2599,5201,5161,1494,8107,369,-5328,3339
2017-03-09 18:13:04.312408,1875,5908,-7061,15098,-2599,5201,5161,1494,8107,369,-5328,3339
2017-03-09 18:13:04.325116,-7166,5908,-1756,15098,-7658,5201,-7899,1494,-5937,369,2614,3339
2017-03-09 18:13:04.330757,-7166,5908,-1756,15098,-7658,5201,-7899,1494,-5937,369,2614,3339
2017-03-09 18:13:04.342414,6929,5908,5741,15098,814,5201,-4355,1494,-1685,369,6768,3339
2017-03-09 18:13:04.354949,6929,5908,5741,15098,814,5201,-4355,1494,-1685,369,6768,3339
2017-03-09 18:13:04.367296,3001,5908,1665,15098,1695,5201,7140,1494,6396,369,1327,3339
2017-03-09 18:13:04.371828,3001,5908,1665,15098,1695,5201,7140,1494,6396,369,1327,3339
2017-03-09 18:13:04.384148,5381,5908,453,15098,-4485,5201,-5219,1494,-925,369,3737,3339
2017-03-09 18:13:04.385383,5381,5908,453,15098,-4485,5201,-5219,1494,-925,369,3737,3339
2017-03-09 18:13:04.399392,5381,5908,453,15098,-4485,5201,-5219,1494,-925,369,3737,3339
2017-03-09 18:13:04.419235,5381,5908,453,15098,-4485,5201,-5219,1494,-925,369,3737,3339
2017-03-09 18:13:04.426591,6460,5908,1454,15098,4232,5201,31,1494,-7810,369,-5544,3339
2017-03-09 18:13:04.442713,6460,5908,1454,15098,4232,5201,31,1494,-7810,369,-5544,3339
2017-03-09 18:13:04.450758,6460,5908,1454,15098,4232,5201,31,1494,-7810,369,-5544,3339
2017-03-09 18:13:04.456215,-4953,5908,-3091,15098,3122,5201,6167,1494,-2951,369,325,3339
2017-03-09 18:13:04.465905,-4953,5908,-3091,15098,3122,5201,6167,1494,-2951,369,325,3339
2017-03-09 18:13:04.476078,-4953,5908,-3091,15098,3122,5201,6167,1494,-2951,369,325,3339
2017-03-09 18:13:04.485837,-4953,5908,-3091,15098,3122,5201,6167,1494,-2951,369,325,3339
2017-03-09 18:13:04.496629,6006,5908,-2720,15098,4794,5201,2393,1494,-7583,369,-1738,3339
2017-03-09 18:13:04.506281,426,5908,-3746,15098,-2538,5201,4823,1494,5475,369,-4748,3339
2017-03-09 18:13:04.517353,426,5908,-3746,15098,-2538,5201,4823,1494,5475,369,-4748,3339
2017-03-09 18:13:04.523070,426,5908,-3746,15098,-2538,5201,4823,1494,5475,369,-4748,3339
2017-03-09 18:13:04.539354,7748,5908,6620,15098,2873,5201,730,1494,-8189,369,4414,3339
2017-03-09 18:13:04.545127,7748,5908,6620,15098,2873,5201,730,1494,-8189,369,4414,3339
2017-03-09 18:13:04.557923,-6644,5908,-7302,15098,-2268,5201,-7837,1494,4301,369,-6112,3339
2017-03-09 18:13:04.567182,-6644,5908,-7302,15098,-2268,5201,-7837,1494,4301,369,-6112,3339
2017-03-09 18:13:04.577825,-5582,5908,1870,15098,5163,5201,-6239,1494,4966,369,-6895,3339
2017-03-09 18:13:04.585853,-5582,5908,1870,15098,5163,5201,-6239,1494,4966,369,-6895,3339
2017-03-09 18:13:04.592730,-5582,5908,1870,15098,5163,5201,-6239,1494,4966,369,-6895,3339
2017-03-09 18:13:04.597358,-5582,5908,1870,15098,5163,5201,-6239,1494,4966,369,-6895,3339
2017-03-09 18:13:04.616619,-5582,5908,1870,15098,5163,5201,-6239,1494,4966,369,-6895,3339
2017-03-09 18:13:04.626543,-5582,5908,1870,15098,5163,5201,-6239,1494,4966,369,-6895,3339
2017-03-09 18:13:04.632999,-5582,5908,1870,15098,5163,5201,-6239,1494,4966,369,-6895,3339
2017-03-09 18:13:04.641308,-5582,5908,1870,15098,5163,5201,-6239,1494,4966,369,-6895,3339
2017-03-09 18:13:04.646247,1238,5908,-7498,15098,-5056,5201,119,1494,-377,369,7039,3339
2017-03-09 18:13:04.650672,1238,5908,-7498,15098,-5056,5201,119,1494,-377,369,7039,3339
2017-03-09 18:13:04.660982,1238,5908,-7498,15098,-5056,5201,119,1494,-377,369,7039,3339
2017-03-09 18:13:04.665113,1238,5908,-7498,15098,-5056,5201,119,1494,-377,369,7039,3339
2017-03-09 18:13:04.674287,1238,5908,-7498,15098,-5056,5201,119,1494,-377,369,7039,3339
2017-03-09 18:13:04.693004,1238,5908,-7498,15098,-5056,5201,119,1494,-377,369,7039,3339
2017-03-09 18:13:04.693596,1238,5908,-7498,15098,-5056,5201,119,1494,-377,369,7039,3339
2017-03-09 18:13:04.699922,-5594,5908,8148,15098,3626,5201,-1605,1494,4980,369,-4290,3339
2017-03-09 18:13:04.714904,-5594,5908,8148,15098,3626,5201,-1605,1494,4980,369,-4290,3339
2017-03-09 18:13:04.724714,-5594,5908,8148,15098,3626,5201,-1605,1494,4980,369,-4290,3339
2017-03-09 18:13:04.749799,-5594,5908,8148,15098,3626,5201,-1605,1494,4980,369,-4290,3339
2017-03-09 18:13:04.770617,-5594,5908,8148,15098,3626,5201,-1605,1494,4980,369,-4290,3339
2017-03-09 18:13:04.771026,7437,5908,-5231,15098,-3814,5201,-7876,1494,-824,369,-2397,3339
2017-03-09 18:13:04.781749,6622,5908,-4236,15098,4537,5201,8129,1494,-7396,369,5095,3339
2017-03-09 18:13:04.785695,1581,5908,-2284,15098,6465,5201,34,1494,1622,369,3702,3339
2017-03-09 18:13:04.792702,-7682,5908,2502,15098,5292,5201,-6912,1494,6347,369,7724,3339
2017-03-09 18:13:04.797162,-7682,5908,2502,15098,5292,5201,-6912,1494,6347,369,7724,3339
2017-03-09 18:13:04.805539,-7682,5908,2502,15098,5292,5201,-6912,1494,6347,369,7724,3339
2017-03-09 18:13:04.809518,-7682,5908,2502,15098,5292,5201,-6912,1494,6347,369,7724,3339
2017-03-09 18:13:04.815099,-7682,5908,2502,15098,5292,5201,-6912,1494,6347,369,7724,3339
2017-03-09 18:13:04.828386,-7682,5908,2502,15098,5292,5201,-6912,1494,6347,369,7724,3339
2017-03-09 18:13:04.837172,-7682,5908,2502,15098,5292,5201,-6912,1494,6347,369,7724,3339
2017-03-09 18:13:04.849882,6150,5908,1272,15098,5468,5201,6242,1494,5171,369,1269,3339
2017-03-09 18:13:04.861981,6150,5908,1272,15098,5468,5201,6242,1494,5171,369,1269,3339
2017-03-09 18:13:04.868963,6150,5908,1272,15098,5468,5201,6242,1494,5171,369,1269,3339
2017-03-09 18:13:04.878892,6150,5908,1272,15098,5468,5201,6242,1494,5171,369,1269,3339
2017-03-09 18:13:04.890005,6150,5908,1272,15098,5468,5201,6242,1494,5171,369,1269,3339
2017-03-09 18:13:04.899403,-2751,5908,6192,15098,3664,5201,6366,1494,-2135,369,5097,3339
2017-03-09 18:13:04.907278,-2751,5908,6192,15098,3664,5201,6366,1494,-2135,369,5097,3339
2017-03-09 18:13:04.912632,-2751,5908,6192,15098,3664,5201,6366,1494,-2135,369,5097,3339
2017-03-09 18:13:04.927169,5238,5908,4993,15098,-843,5201,3565,1494,-4266,9198,4624,3339
2017-03-09 18:13:04.934400,5238,5908,4993,15098,-843,5201,3565,1494,-4266,9198,4624,3339
2017-03-09 18:13:04.937780,5238,5908,4993,15098,-843,5201,3565,1494,-4266,9198,4624,3339
2017-03-09 18:13:04.947750,5238,5908,4993,15098,-843,5201,3565,1494,-4266,9198,4624,3339
2017-03-09 18:13:04.957671,-5531,5908,-6486,15098,-4370,5201,40,1494,-4151,9198,2374,3339
2017-03-09 18:13:04.975144,-5531,5908,-6486,15098,-4370,5201,40,1494,-4151,9198,2374,3339
2017-03-09 18:13:04.983503,-4705,5908,-7786,15098,2149,5201,5274,1494,5921,9198,995,3339
2017-03-09 18:13:04.997184,-4705,5908,-7786,15098,2149,5201,5274,1494,5921,9198,995,3339
2017-03-09 18:13:05.005091,-1852,5908,-3934,15098,7570,5201,3552,1494,-4736,9198,7588,3339
2017-03-09 18:13:05.025032,-1852,5908,-3934,15098,7570,5201,3552,1494,-4736,9198,7588,3339
2017-03-09 18:13:05.040795,-3536,5908,7247,15098,-6921,5201,1837,1494,6646,9198,-3608,3339
2017-03-09 18:13:05.060133,8119,5908,2657,4948,-285,5201,-4986,1494,23,9198,632,3339
2017-03-09 18:13:05.076401,8119,5908,2657,4948,-285,5201,-4986,1494,23,9198,632,3339
2017-03-09 18:13:05.090108,8119,5908,2657,4948,-285,5201,-4986,1494,23,9198,632,3339
2017-03-09 18:13:05.102620,8119,5908,2657,4948,-285,5201,-4986,1494,23,9198,632,3339
2017-03-09 18:13:05.115485,8119,5908,2657,4948,-285,5201,-4986,1494,23,9198,632,3339
2017-03-09 18:13:05.115913,1146,5908,6674,4948,-3951,5201,-2192,1494,3976,9198,7085,3339
2017-03-09 18:13:05.121440,1146,5908,6674,4948,-3951,5201,-2192,1494,3976,9198,7085,3339
2017-03-09 18:13:05.127955,4399,5908,5907,4948,6428,5201,572,1494,745,9198,-7871,3339
2017-03-09 18:13:05.145103,4399,5908,5907,4948,6428,5201,572,1494,745,9198,-7871,3339
2017-03-09 18:13:05.174722,5534,5908,-1241,4948,4030,5201,-475,1494,-6630,9198,-5558,14815
2017-03-09 18:13:05.182927,5534,5908,-1241,4948,4030,5201,-475,1494,-6630,9198,-5558,14815
2017-03-09 18:13:05.201710,5534,5908,-1241,4948,4030,5201,-475,1494,-6630,9198,-5558,14815
2017-03-09 18:13:05.202265,5534,5908,-1241,4948,4030,5201,-475,1494,-6630,9198,-5558,14815
2017-03-09 18:13:05.211054,5534,5908,-1241,4948,4030,5201,-475,1494,-6630,9198,-5558,14815
2017-03-09 18:13:05.223337,3844,5908,-7391,4948,4030,5201,-475,1494,6945,9198,3324,14815
2017-03-09 18:13:05.227834,-421,5908,7412,4948,-2958,5201,-7891,10734,-657,9198,3650,14815
2017-03-09 18:13:05.245891,-421,5908,7412,4948,-2958,5201,-7891,10734,-657,9198,3650,14815
2017-03-09 18:13:05.246463,-421,5908,7412,4948,-2958,5201,-7891,10734,-657,9198,3650,14815
2017-03-09 18:13:05.260402,-421,5908,7412,4948,-2958,5201,-7891,10734,-657,9198,3650,14815
2017-03-09 18:13:05.301370,-421,5908,7412,4948,-2958,5201,-7891,10734,-657,9198,3650,14815
2017-03-09 18:13:05.301556,895,5908,1124,4948,-1713,5201,4330,10734,6282,9198,-1557,14815
2017-03-09 18:13:05.309598,895,5908,1124,4948,-1713,5201,4330,10734,6282,9198,-1557,14815
2017-03-09 18:13:05.315554,895,5908,1124,4948,-1713,5201,4330,10734,6282,9198,-1557,14815
2017-03-09 18:13:05.323990,895,5908,1124,4948,-1713,5201,4330,10734,6282,9198,-1557,14815
2017-03-09 18:13:05.332672,895,5908,1124,4948,-1713,5201,4330,10734,6282,9198,-1557,14815
2017-03-09 18:13:05.338458,895,5908,1124,4948,-1713,5201,4330,10734,6282,9198,-1557,14815
2017-03-09 18:13:05.346077,-3775,5908,-1234,4948,-2414,5201,697,10734,967,9198,1865,14815
2017-03-09 18:13:05.351267,-3775,5908,-1234,4948,-2414,5201,697,10734,967,9198,1865,14815
2017-03-09 18:13:05.356425,-535,5908,-5449,4948,7805,5201,1788,10734,386,9198,-5391,14815
2017-03-09 18:13:05.363898,-535,5908,-5449,4948,7805,5201,1788,10734,386,9198,-5391,14815
2017-03-09 18:13:05.372933,-535,5908,-5449,4948,7805,5201,1788,10734,386,9198,-5391,14815
2017-03-09 18:13:05.386899,-535,5908,-5449,4948,7805,5201,1788,10734,386,9198,-5391,14815
2017-03-09 18:13:05.387465,2016,5908,-1875,4948,3094,5201,3989,10734,-2991,9198,-912,14815
2017-03-09 18:13:05.398466,2016,5908,-1875,4948,3094,5201,3989,10734,-2991,9198,-912,14815
2017-03-09 18:13:05.407947,2016,5908,-1875,4948,3094,5201,3989,10734,-2991,9198,-912,14815
2017-03-09 18:13:05.412900,2016,5908,-1875,4948,3094,5201,3989,10734,-2991,9198,-912,14815
2017-03-09 18:13:05.422733,2016,5908,-1875,4948,3094,5201,3989,10734,-2991,9198,-912,14815
2017-03-09 18:13:05.432160,2016,5908,-1875,4948,3094,5201,3989,10734,-2991,9198,-912,14815
2017-03-09 18:13:05.441444,2016,5908,-1875,4948,3094,5201,3989,10734,-2991,9198,-912,14815
2017-03-09 18:13:05.449413,-377,5908,-8122,4948,3660,5201,-4443,10734,3182,9198,-7519,14815
2017-03-09 18:13:05.457368,-377,5908,-8122,4948,3660,5201,-4443,10734,3182,9198,-7519,14815
2017-03-09 18:13:05.462194,-377,5908,-8122,4948,3660,5201,-4443,10734,3182,9198,-7519,14815
2017-03-09 18:13:05.466383,-377,5908,-8122,4948,3660,5201,-4443,10734,3182,9198,-7519,14815
2017-03-09 18:13:05.472638,-377,5908,-8122,4948,3660,5201,-4443,10734,3182,9198,-7519,14815
2017-03-09 18:13:05.489524,-377,5908,-8122,4948,3660,5201,-4443,10734,3182,9198,-7519,14815
2017-03-09 18:13:05.495864,7455,5908,3882,4948,6201,5201,-2252,10734,562,9198,7422,14815
2017-03-09 18:13:05.514091,7455,5908,3882,4948,6201,5201,-2252,10734,562,9198,7422,14815
2017-03-09 18:13:05.514205,7455,5908,3882,4948,6201,5201,-2252,10734,562,9198,7422,14815
2017-03-09 18:13:05.515101,7455,5908,3882,4948,6201,5201,-2252,10734,562,9198,7422,14815
2017-03-09 18:13:05.522147,7455,5908,3882,4948,6201,5201,-2252,10734,562,9198,7422,14815
2017-03-09 18:13:05.527094,7455,5908,3882,4948,6201,5201,-2252,10734,562,9198,7422,14815
2017-03-09 18:13:05.530709,7455,5908,3882,4948,6201,5201,-2252,10734,562,9198,7422,14815
2017-03-09 18:13:05.545306,7816,5908,1802,4948,-7883,5201,-751,10734,-3297,9198,-1542,14815
2017-03-09 18:13:05.545510,7816,5908,1802,4948,-7883,5201,-751,10734,-3297,9198,-1542,14815
2017-03-09 18:13:05.554219,-7215,5908,-1430,4948,2136,5201,-8068,10734,-618,9198,-6682,14815
2017-03-09 18:13:05.622969,-4548,5908,8070,4948,6943,5201,-8060,10734,4417,9198,-6395,14815
2017-03-09 18:13:05.634117,-4548,5908,8070,4948,6943,5201,-8060,10734,4417,9198,-6395,14815
2017-03-09 18:13:05.647484,-4548,5908,8070,4948,6943,5201,-8060,10734,4417,9198,-6395,14815
2017-03-09 18:13:05.648350,-4548,5908,8070,4948,6943,5201,-8060,10734,4417,9198,-6395,14815
2017-03-09 18:13:05.661014,-4548,5908,8070,4948,6943,5201,-8060,10734,4417,9198,-6395,14815
2017-03-09 18:13:05.669225,-4548,5908,8070,4948,6943,5201,-8060,10734,4417,9198,-6395,14815
2017-03-09 18:13:05.669709,-4548,5908,8070,4948,6943,5201,-8060,10734,4417,9198,-6395,14815
2017-03-09 18:13:05.676339,4091,5908,172,4948,664,5201,-3387,10734,-7304,9198,-5598,14815
2017-03-09 18:13:05.683191,4091,5908,172,4948,664,5201,-3387,10734,-7304,9198,-5598,14815
2017-03-09 18:13:05.688567,4091,5908,172,4948,664,5201,-3387,10734,-7304,9198,-5598,14815
2017-03-09 18:13:05.698308,4170,5908,1275,4948,-1534,5201,-467,10734,6164,9198,1950,14815
2017-03-09 18:13:05.707767,4170,5908,1275,4948,-1534,5201,-467,10734,6164,9198,1950,14815
2017-03-09 18:13:05.717715,4170,5908,1275,4948,-1534,5201,-467,10734,6164,9198,1950,14815
2017-03-09 18:13:05.728910,-2536,5908,6960,4948,-5065,5201,4927,10734,-4572,9198,-3518,14815
2017-03-09 18:13:05.737998,-2536,5908,6960,4948,-5065,5201,4927,10734,-4572,9198,-3518,14815
2017-03-09 18:13:05.754919,-4197,5908,6358,4948,-4027,5201,-4890,10734,-2620,10427,-812,14815
2017-03-09 18:13:05.755839,-4197,5908,6358,4948,-4027,5201,-4890,10734,-2620,10427,-812,14815
2017-03-09 18:13:05.769447,-4197,5908,6358,4948,-4027,5201,-4890,10734,-2620,10427,-812,14815
2017-03-09 18:13:05.776986,-4197,5908,6358,4948,-4027,5201,-4890,10734,-2620,10427,-812,14815
2017-03-09 18:13:05.792061,-4197,5908,6358,4948,-4027,5201,-4890,10734,-2620,10427,-812,14815
2017-03-09 18:13:05.797404,-4197,5908,6358,4948,-4027,5201,-4890,10734,-2620,10427,-812,14815
2017-03-09 18:13:05.810298,5820,5908,-5398,4948,-3515,5201,-5849,10734,-3235,10427,6818,14815
2017-03-09 18:13:05.817560,713,5908,74,4948,7567,5201,2755,10734,7737,10427,3977,14815
2017-03-09 18:13:05.841385,713,5908,74,4948,7567,5201,2755,10734,7737,10427,3977,14815
2017-03-09 18:13:05.847849,6694,3487,-178,4948,-7290,5201,6123,10734,-1654,10427,-7389,14815
2017-03-09 18:13:05.874395,6694,3487,-178,4948,-7290,5201,6123,10734,-1654,10427,-7389,14815
2017-03-09 18:13:05.893296,6694,3487,-178,4948,-7290,5201,6123,10734,-1654,10427,-7389,14815
2017-03-09 18:13:05.893544,6694,3487,-178,4948,-7290,5201,6123,10734,-1654,10427,-7389,14815
2017-03-09 18:13:05.921537,-592,3487,6384,4948,4596,5201,-2093,10734,6581,10427,5033,14815
2017-03-09 18:13:05.933671,-592,3487,6384,4948,4596,5201,-2093,10734,6581,10427,5033,14815
2017-03-09 18:13:05.945908,3591,3487,-1827,4948,-5851,5201,5952,10734,5441,5507,6071,14815
2017-03-09 18:13:05.965033,323,3487,-5931,4948,3009,5201,121,10734,6061,5507,-5090,14815
2017-03-09 18:13:05.977724,4649,3487,5998,4948,-4909,5201,-5344,10734,2641,5507,-3830,14815
2017-03-09 18:13:05.985676,-3036,3487,-1225,4948,-7483,5201,3406,10734,-2899,5507,4759,14815
2017-03-09 18:13:05.997441,-3036,3487,-1225,4948,-7483,5201,3406,10734,-2899,5507,4759,14815
2017-03-09 18:13:06.010233,6045,3487,5853,4948,493,5201,-8013,10734,3410,5507,3893,14815
2017-03-09 18:13:06.031097,6045,3487,5853,4948,493,5201,-8013,10734,3410,5507,3893,14815
2017-03-09 18:13:06.044563,6045,3487,5853,4948,493,5201,-8013,10734,3410,5507,3893,14815
2017-03-09 18:13:06.056482,6045,3487,5853,4948,493,5201,-8013,10734,3410,5507,3893,14815
2017-03-09 18:13:06.069259,6045,3487,5853,4948,493,5201,-8013,10734,3410,5507,3893,14815
2017-03-09 18:13:06.069438,-4736,3487,7203,4948,7144,5201,5187,10734,-7052,5507,6486,14815
2017-03-09 18:13:06.083572,-4736,3487,7203,4948,7144,5201,5187,10734,-7052,5507,6486,14815
2017-03-09 18:13:06.083759,-4736,3487,7203,4948,7144,5201,5187,10734,-7052,5507,6486,14815
2017-03-09 18:13:06.102157,-4736,3487,7203,4948,7144,5201,5187,10734,-7052,5507,6486,14815
2017-03-09 18:13:06.106586,-4736,3487,7203,4948,7144,5201,5187,10734,-7052,5507,6486,14815
2017-03-09 18:13:06.121920,-4736,3487,7203,4948,7144,5201,5187,10734,-7052,5507,6486,14815
2017-03-09 18:13:06.133167,4301,3487,4061,4948,2699,5201,-4989,10734,-5270,5507,-4192,14815
2017-03-09 18:13:06.145827,4301,3487,4061,4948,2699,5201,-4989,10734,-5270,5507,-4192,14815
2017-03-09 18:13:06.152217,4301,3487,4061,4948,2699,5201,-4989,10734,-5270,5507,-4192,14815
2017-03-09 18:13:06.159717,4301,3487,4061,4948,2699,5201,-4989,10734,-5270,5507,-4192,14815
2017-03-09 18:13:06.172875,4301,3487,4061,4948,2699,5201,-4989,10734,-5270,5507,-4192,14815
2017-03-09 18:13:06.177868,4404,3487,-7421,4948,-7841,5201,5225,10734,-230,5507,5073,14815
2017-03-09 18:13:06.187429,4404,3487,-7421,4948,-7841,5201,5225,10734,-230,5507,5073,14815
2017-03-09 18:13:06.215268,4404,3487,-7421,4948,-7841,5201,5225,10734,-230,5507,5073,14815
2017-03-09 18:13:06.218873,4404,3487,-7421,4948,-7841,5201,5225,10734,-230,5507,5073,14815
2017-03-09 18:13:06.229709,1288,3487,-7879,4948,-6725,5201,6913,10734,3897,5507,-2446,14815
2017-03-09 18:13:06.237637,1288,3487,-7879,4948,-6725,5201,6913,10734,3897,5507,-2446,14815
2017-03-09 18:13:06.241522,1288,3487,-7879,4948,-6725,5201,6913,10734,3897,5507,-2446,14815
2017-03-09 18:13:06.255348,1288,3487,-7879,4948,-6725,5201,6913,10734,3897,5507,-2446,14815
2017-03-09 18:13:06.256286,1288,3487,-7879,4948,-6725,5201,6913,10734,3897,5507,-2446,14815
2017-03-09 18:13:06.270600,1288,3487,-7879,4948,-6725,5201,6913,10734,3897,5507,-2446,14815
2017-03-09 18:13:06.271249,895,3487,-7421,4948,-799,5201,3379,10734,-935,5507,-3101,14815
2017-03-09 18:13:06.277607,7741,3487,-1394,4948,-6602,5201,6481,10734,-3366,5507,-836,14815
2017-03-09 18:13:06.306093,7741,3487,-1394,4948,-6602,5201,6481,10734,-3366,5507,-836,14815
2017-03-09 18:13:06.326068,7741,3487,-1394,4948,-6602,5201,6481,10734,-3366,5507,-836,14815
2017-03-09 18:13:06.328587,7741,3487,-1394,4948,-6602,5201,6481,10734,-3366,5507,-836,14815
2017-03-09 18:13:06.334823,-4679,3487,-7844,4948,-2952,5201,-7925,10734,7828,5507,-7433,14815
2017-03-09 18:13:06.346681,-4679,3487,-7844,4948,-2952,5201,-7925,10734,7828,5507,-7433,14815
2017-03-09 18:13:06.358267,-4679,3487,-7844,4948,-2952,5201,-7925,10734,7828,5507,-7433,14815
2017-03-09 18:13:06.362392,-4679,3487,-7844,4948,-2952,5201,-7925,10734,7828,5507,-7433,14815
2017-03-09 18:13:06.371529,-2303,3487,7817,4948,-706,5201,-6168,10734,4850,5507,1782,14815
2017-03-09 18:13:06.379091,6270,3487,4477,4948,-7780,5201,-6837,10734,865,5507,-2367,14815
2017-03-09 18:13:06.389675,6270,3487,4477,4948,-7780,5201,-6837,10734,865,5507,-2367,14815
2017-03-09 18:13:06.393906,6270,3487,4477,4948,-7780,5201,-6837,10734,865,5507,-2367,14815
2017-03-09 18:13:06.398069,4188,3487,2612,4948,6410,5201,-445,10734,-362,5507,-7922,14815
2017-03-09 18:13:06.406504,4188,3487,2612,4948,6410,5201,-445,10734,-362,5507,-7922,14815
2017-03-09 18:13:06.414219,6966,3487,-7323,4948,-7505,5201,4832,10734,-1902,5507,-7414,14815
2017-03-09 18:13:06.425544,6966,3487,-7323,4948,-7505,5201,4832,10734,-1902,5507,-7414,14815
2017-03-09 18:13:06.426138,6966,3487,-7323,4948,-7505,5201,4832,10734,-1902,5507,-7414,14815
2017-03-09 18:13:06.442258,6966,3487,-7323,4948,-7505,5201,4832,10734,-1902,5507,-7414,14815
2017-03-09 18:13:06.442433,6966,3487,-7323,4948,-7505,5201,4832,10734,-1902,5507,-7414,14815
2017-03-09 18:13:06.483187,3099,3487,2509,4948,-6024,5201,1560,10734,-8074,5507,921,14815
2017-03-09 18:13:06.483393,3099,3487,2509,4948,-6024,5201,1560,10734,-8074,5507,921,14815
2017-03-09 18:13:06.483523,3099,3487,2509,4948,-6024,5201,1560,10734,-8074,5507,921,14815
2017-03-09 18:13:06.494859,3099,3487,2509,4948,-6024,5201,1560,10734,-8074,5507,921,14815
2017-03-09 18:13:06.494907,3099,3487,2509,4948,-6024,5201,1560,10734,-8074,5507,921,14815
2017-03-09 18:13:06.502330,-4182,3487,3690,4948,4477,5201,-4931,10734,1256,5507,4468,14815
2017-03-09 18:13:06.506048,-4182,3487,3690,4948,4477,5201,-4931,10734,1256,5507,4468,14815
2017-03-09 18:13:06.520578,-4182,3487,3690,4948,4477,5201,-4931,10734,1256,5507,4468,14815
2017-03-09 18:13:06.531460,-4182,3487,3690,4948,4477,5201,-4931,10734,1256,5507,4468,14815
2017-03-09 18:13:06.548643,-4182,3487,3690,4948,4477,5201,-4931,10734,1256,5507,4468,14815
2017-03-09 18:13:06.548840,-4182,3487,3690,4948,4477,5201,-4931,10734,1256,5507,4468,14815
2017-03-09 18:13:06.563428,-4182,3487,3690,4948,4477,5201,-4931,10734,1256,5507,4468,14815
2017-03-09 18:13:06.580278,-4182,3487,3690,4948,4477,5201,-4931,10734,1256,5507,4468,14815
2017-03-09 18:13:06.585577,-2032,3487,1539,4948,-2527,5201,5479,10734,4240,5507,2061,14815
2017-03-09 18:13:06.591493,5143,3487,-6643,4948,-1261,5201,7326,10734,-6649,5507,-5370,14815
2017-03-09 18:13:06.616889,4474,3487,-5938,4948,744,5201,-2437,10734,544,5507,5615,14815
2017-03-09 18:13:06.642318,4474,3487,-5938,4948,744,5201,-2437,10734,544,5507,5615,14815
2017-03-09 18:13:06.642469,4474,3487,-5938,4948,744,5201,-2437,10734,544,5507,5615,14815
2017-03-09 18:13:06.646902,-4587,3487,-876,4948,-7979,5201,-7721,10734,800,5507,-5941,14815
2017-03-09 18:13:06.654113,-4587,3487,-876,4948,-7979,5201,-7721,10734,800,5507,-5941,14815
2017-03-09 18:13:06.660342,-4587,3487,-876,4948,-7979,5201,-7721,10734,800,5507,-5941,14815
2017-03-09 18:13:06.668065,-4587,3487,-876,4948,-7979,5201,-7721,10734,800,5507,-5941,14815
2017-03-09 18:13:06.673296,-4587,3487,-876,4948,-7979,5201,-7721,10734,800,5507,-5941,14815
2017-03-09 18:13:06.681633,-4587,3487,-876,4948,-7979,5201,-7721,10734,800,5507,-5941,14815
2017-03-09 18:13:06.685691,-4587,3487,-876,4948,-7979,5201,-7721,10734,800,5507,-5941,14815
2017-03-09 18:13:06.705752,-4931,3487,3816,4948,-5324,5201,5306,10734,485,5507,-4623,14815
2017-03-09 18:13:06.713248,-4931,3487,3816,4948,-5324,5201,5306,10734,485,5507,-4623,14815
2017-03-09 18:13:06.730544,-4931,3487,3816,4948,-5324,5201,5306,10734,485,5507,-4623,14815
2017-03-09 18:13:06.741317,-4931,3487,3816,4948,-5324,5201,5306,10734,485,5507,-4623,14815
2017-03-09 18:13:06.758889,-4214,3487,3397,4948,-7402,5201,7442,10734,6377,5507,8034,14815
2017-03-09 18:13:06.763686,-4214,3487,3397,4948,-7402,5201,7442,10734,6377,5507,8034,14815
2017-03-09 18:13:06.774359,-1816,3487,2440,4948,5904,5201,7813,13930,-1317,5507,1381,14815
2017-03-09 18:13:06.779451,-1816,3487,2440,4948,5904,5201,7813,13930,-1317,5507,1381,14815
2017-03-09 18:13:06.794526,-1816,3487,2440,4948,5904,5201,7813,13930,-1317,5507,1381,14815
2017-03-09 18:13:06.809596,-5604,3487,3853,4948,-5121,5201,36,13930,5632,5507,-7248,14815
2017-03-09 18:13:06.819630,-5604,3487,3853,4948,-5121,5201,36,13930,5632,5507,-7248,14815
2017-03-09 18:13:06.827978,-5604,3487,3853,4948,-5121,5201,36,13930,5632,5507,-7248,14815
2017-03-09 18:13:06.834005,-5604,3487,3853,4948,-5121,5201,36,13930,5632,5507,-7248,14815
2017-03-09 18:13:06.846213,-5604,3487,3853,4948,-5121,5201,36,13930,5632,5507,-7248,14815
2017-03-09 18:13:06.860010,3774,3487,1481,14723,-2329,14719,6322,13930,1530,5507,2003,14815
2017-03-09 18:13:06.864706,3774,3487,1481,14723,-2329,14719,6322,13930,1530,5507,2003,14815
2017-03-09 18:13:06.873934,1232,3487,3928,14723,489,14719,-234,13930,-7769,5507,-6565,14815
2017-03-09 18:13:06.905522,-43,3487,1491,14723,7109,14719,-5480,13930,1811,5507,4970,14815
2017-03-09 18:13:06.929913,-43,3487,1491,14723,7109,14719,-5480,13930,1811,5507,4970,14815
2017-03-09 18:13:06.930105,-43,3487,1491,14723,7109,14719,-5480,13930,1811,5507,4970,14815
2017-03-09 18:13:06.930245,5242,3487,7385,14723,4480,14719,7870,13930,7775,5507,7654,14815
2017-03-09 18:13:06.937360,-1352,3487,4830,14723,-5551,14719,7160,13930,3806,5507,8189,14815
2017-03-09 18:13:06.948275,5877,3487,-2990,14723,-7985,14719,-2571,13930,-452,5507,60,14815
2017-03-09 18:13:06.948875,5877,3487,-2990,14723,-7985,14719,-2571,13930,-452,5507,60,14815
2017-03-09 18:13:06.961453,5877,3487,-2990,14723,-7985,14719,-2571,13930,-452,5507,60,14815
2017-03-09 18:13:06.965267,5877,3487,-2990,14723,-7985,14719,-2571,13930,-452,5507,60,14815
2017-03-09 18:13:06.972052,-612,3487,-1568,14723,-2008,14719,3852,13930,-3313,5507,-7491,14815
2017-03-09 18:13:06.977926,-612,3487,-1568,14723,-2008,14719,3852,13930,-3313,5507,-7491,14815
2017-03-09 18:13:06.985414,-612,3487,-1568,14723,-2008,14719,3852,13930,-3313,5507,-7491,14815
2017-03-09 18:13:06.993741,-612,3487,-1568,14723,-2008,14719,3852,13930,-3313,5507,-7491,14815
2017-03-09 18:13:06.997769,-612,3487,-1568,14723,-2008,14719,3852,13930,-3313,5507,-7491,14815
2017-03-09 18:13:07.009625,5123,3487,-3784,14723,6896,14719,-5339,13930,5128,5507,5396,14815
2017-03-09 18:13:07.019371,5123,3487,-3784,14723,6896,14719,-5339,13930,5128,5507,5396,14815
2017-03-09 18:13:07.019686,5123,3487,-3784,14723,6896,14719,-5339,13930,5128,5507,5396,14815
2017-03-09 18:13:07.037812,5123,3487,-3784,14723,6896,14719,-5339,13930,5128,5507,5396,14815
2017-03-09 18:13:07.046061,5123,3487,-3784,14723,6896,14719,-5339,13930,5128,5507,5396,14815
2017-03-09 18:13:07.059927,5123,3487,-3784,14723,6896,14719,-5339,13930,5128,5507,5396,14815
2017-03-09 18:13:07.067172,5123,3487,-3784,14723,6896,14719,-5339,13930,5128,5507,5396,14815
2017-03-09 18:13:07.075714,5123,3487,-3784,14723,6896,14719,-5339,13930,5128,5507,5396,14815
2017-03-09 18:13:07.088746,5123,3487,-3784,14723,6896,14719,-5339,13930,5128,5507,5396,14815
2017-03-09 18:13:07.099408,5123,3487,-3784,14723,6896,14719,-5339,13930,5128,5507,5396,14815
2017-03-09 18:13:07.107921,3781,3487,-6930,14723,807,14719,-6973,13930,-5704,5507,5292,14815
2017-03-09 18:13:07.119273,3781,3487,-6930,14723,807,14719,-6973,13930,-5704,5507,5292,14815
2017-03-09 18:13:07.131156,3781,3487,-6930,14723,807,14719,-6973,13930,-5704,5507,5292,14815
2017-03-09 18:13:07.140578,3781,3487,-6930,14723,807,14719,-6973,13930,-5704,5507,5292,14815
2017-03-09 18:13:07.158433,3781,3487,-6930,14723,807,14719,-6973,13930,-5704,5507,5292,14815
2017-03-09 18:13:07.164803,3781,3487,-6930,14723,807,14719,-6973,13930,-5704,5507,5292,14815
2017-03-09 18:13:07.177052,3781,3487,-6930,14723,807,14719,-6973,13930,-5704,5507,5292,14815
2017-03-09 18:13:07.185488,2058,3487,-6706,14723,6499,14719,-756,13930,-5710,5507,713,14815
2017-03-09 18:13:07.191257,2058,3487,-6706,14723,6499,14719,-756,13930,-5710,5507,713,14815
2017-03-09 18:13:07.194767,2058,3487,-6706,14723,6499,14719,-756,13930,-5710,5507,713,14815
2017-03-09 18:13:07.204878,2058,3487,-6706,14723,6499,14719,-756,13930,-5710,5507,713,14815
2017-03-09 18:13:07.205537,2058,3487,-6706,14723,6499,14719,-756,13930,-5710,5507,713,14815
2017-03-09 18:13:07.215345,2058,3487,-6706,14723,6499,14719,-756,13930,-5710,5507,713,14815
2017-03-09 18:13:07.227400,2058,3487,-6706,14723,6499,14719,-756,13930,-5710,5507,713,14815
2017-03-09 18:13:07.234181,2058,3487,-6706,14723,6499,14719,-756,13930,-5710,5507,713,14815
2017-03-09 18:13:07.255856,6037,3487,7096,14723,2020,14719,3623,13930,-6489,5507,2271,5818
2017-03-09 18:13:07.266056,6037,3487,7096,14723,2020,14719,3623,13930,-6489,5507,2271,5818
2017-03-09 18:13:07.278150,6037,3487,7096,14723,2020,14719,3623,13930,-6489,5507,2271,5818
2017-03-09 18:13:07.285939,4580,3487,-8189,14723,-4009,14719,-5324,13930,-7470,5507,2423,5818
2017-03-09 18:13:07.292076,4580,3487,-8189,14723,-4009,14719,-5324,13930,-7470,5507,2423,5818
2017-03-09 18:13:07.303228,4580,3487,-8189,14723,-4009,14719,-5324,13930,-7470,5507,2423,5818
2017-03-09 18:13:07.307030,4580,3487,-8189,14723,-4009,14719,-5324,13930,-7470,5507,2423,5818
2017-03-09 18:13:07.311692,1590,3487,-1516,14723,2372,14719,7407,13930,-1197,5507,-4355,5818
2017-03-09 18:13:07.317477,1590,3487,-1516,14723,2372,14719,7407,13930,-1197,5507,-4355,5818
2017-03-09 18:13:07.321454,1590,3487,-1516,14723,2372,14719,7407,13930,-1197,5507,-4355,5818
2017-03-09 18:13:07.328086,1590,3487,-1516,14723,2372,14719,7407,13930,-1197,5507,-4355,5818
2017-03-09 18:13:07.338500,1590,3487,-1516,14723,2372,14719,7407,13930,-1197,5507,-4355,5818
2017-03-09 18:13:07.361477,1590,3487,-1516,14723,2372,14719,7407,13930,-1197,5507,-4355,5818
2017-03-09 18:13:07.370532,1590,3487,-1516,14723,2372,14719,7407,13930,-1197,5507,-4355,5818
2017-03-09 18:13:07.381443,1590,3487,-1516,14723,2372,14719,7407,13930,-1197,5507,-4355,5818
2017-03-09 18:13:07.397134,2403,3487,-3112,14723,-6722,14719,3501,13930,1493,5507,5078,5818
2017-03-09 18:13:07.402627,2403,3487,-3112,14723,-6722,14719,3501,13930,1493,5507,5078,5818
2017-03-09 18:13:07.409769,2403,3487,-3112,14723,-6722,14719,3501,13930,1493,5507,5078,5818
2017-03-09 18:13:07.429590,2403,3487,-3112,14723,-6722,14719,3501,13930,1493,5507,5078,5818
2017-03-09 18:13:07.434713,2403,3487,-3112,14723,-6722,14719,3501,13930,1493,5507,5078,5818
2017-03-09 18:13:07.445697,2403,3487,-3112,14723,-6722,14719,3501,13930,1493,5507,5078,5818
2017-03-09 18:13:07.449654,-103,3487,-3993,14723,-5279,14719,-3055,13930,-4086,5507,-706,5818
2017-03-09 18:13:07.460859,-103,3487,-3993,14723,-5279,14719,-3055,13930,-4086,5507,-706,5818
2017-03-09 18:13:07.461741,-103,3487,-3993,14723,-5279,14719,-3055,13930,-4086,5507,-706,5818
2017-03-09 18:13:07.468388,-4332,3487,1106,14723,-6467,14719,-144,13930,-5501,5507,-5307,5818
2017-03-09 18:13:07.478546,-4332,3487,1106,14723,-6467,14719,-144,13930,-5501,5507,-5307,5818
2017-03-09 18:13:07.489317,-4332,3487,1106,14723,-6467,14719,-144,13930,-5501,5507,-5307,5818
2017-03-09 18:13:07.498386,-813,3487,-4553,14723,-7668,14719,-5701,13930,3200,5507,-3417,5818
2017-03-09 18:13:07.507809,-813,3487,-4553,14723,-7668,14719,-5701,13930,3200,5507,-3417,5818
2017-03-09 18:13:07.515609,-3338,3487,-4714,14723,-6800,14719,6486,13930,8171,5507,5906,5818
2017-03-09 18:13:07.527661,-3338,3487,-4714,14723,-6800,14719,6486,13930,8171,5507,5906,5818
2017-03-09 18:13:07.539913,376,3487,-4799,14723,-5246,10406,-7606,13930,7733,5507,2516,5818
2017-03-09 18:13:07.544072,376,3487,-4799,14723,-5246,10406,-7606,13930,7733,5507,2516,5818
2017-03-09 18:13:07.560276,376,3487,-4799,14723,-5246,10406,-7606,13930,7733,5507,2516,5818
2017-03-09 18:13:07.573690,376,3487,-4799,14723,-5246,10406,-7606,13930,7733,5507,2516,5818
2017-03-09 18:13:07.582451,376,3487,-4799,14723,-5246,10406,-7606,13930,7733,5507,2516,5818
2017-03-09 18:13:07.587984,-3088,3487,3995,15841,-2927,10406,-480,13930,5410,5507,4246,5818
2017-03-09 18:13:07.603069,-3088,3487,3995,15841,-2927,10406,-480,13930,5410,5507,4246,5818
2017-03-09 18:13:07.613471,-3088,3487,3995,15841,-2927,10406,-480,13930,5410,5507,4246,5818
2017-03-09 18:13:07.624905,-3088,3487,3995,15841,-2927,10406,-480,13930,5410,5507,4246,5818
2017-03-09 18:13:07.625596,-3088,3487,3995,15841,-2927,10406,-480,13930,5410,5507,4246,5818
2017-03-09 18:13:07.641069,2252,3487,459,15841,-7069,10406,7796,13930,-7720,5507,-3546,5818
2017-03-09 18:13:07.663199,2252,3487,459,15841,-7069,10406,7796,13930,-7720,5507,-3546,5818
2017-03-09 18:13:07.663361,2252,3487,459,15841,-7069,10406,7796,13930,-7720,5507,-3546,5818
2017-03-09 18:13:07.688957,315,3487,-5381,15841,-8163,10406,-7142,13930,-7430,5507,6434,5818
2017-03-09 18:13:07.706951,315,3487,-5381,15841,-8163,10406,-7142,13930,-7430,5507,6434,5818
2017-03-09 18:13:07.712799,6121,3487,1514,15841,-5178,10406,3535,13930,7664,5507,-4053,5818
2017-03-09 18:13:07.723845,6121,3487,1514,15841,-5178,10406,3535,13930,7664,5507,-4053,5818
2017-03-09 18:13:07.729888,-1339,3487,-6378,15841,6448,10406,-6133,13930,1243,5507,-5938,5917
2017-03-09 18:13:07.734769,-1339,3487,-6378,15841,6448,10406,-6133,13930,1243,5507,-5938,5917
2017-03-09 18:13:07.750131,-1680,3487,-924,15841,7152,10406,4012,13930,3383,5507,2086,5917
2017-03-09 18:13:07.762988,-7481,3487,1965,15841,-299,10406,-3892,13930,-3831,5507,1096,5917
2017-03-09 18:13:07.772250,-7481,3487,1965,15841,-299,10406,-3892,13930,-3831,5507,1096,5917
2017-03-09 18:13:07.777034,-7481,3487,1965,15841,-299,10406,-3892,13930,-3831,5507,1096,5917
2017-03-09 18:13:07.783801,-4711,3487,-6287,15841,-2392,10406,5402,13930,1609,5507,343,5917
2017-03-09 18:13:07.792541,-4711,3487,-6287,15841,-2392,10406,5402,13930,1609,5507,343,5917
2017-03-09 18:13:07.816082,-858,3487,-2587,15841,2116,10406,7951,13930,434,5507,3235,5917
2017-03-09 18:13:07.839033,5719,3487,-4457,15841,5056,10406,2501,13930,-1600,5507,-1282,5917
2017-03-09 18:13:07.839212,5719,3487,-4457,15841,5056,10406,2501,13930,-1600,5507,-1282,5917
2017-03-09 18:13:07.846333,-7944,3487,-4968,15841,-92,10406,6179,13930,2096,5507,6783,5917
2017-03-09 18:13:07.859450,-7944,3487,-4968,15841,-92,10406,6179,13930,2096,5507,6783,5917
2017-03-09 18:13:07.866345,-7944,3487,-4968,15841,-92,10406,6179,13930,2096,5507,6783,5917
2017-03-09 18:13:07.878603,-7944,3487,-4968,15841,-92,10406,6179,13930,2096,5507,6783,5917
2017-03-09 18:13:07.894367,-7944,3487,-4968,15841,-92,10406,6179,13930,2096,5507,6783,5917
2017-03-09 18:13:07.915384,-3385,3487,-6766,15841,5007,10406,3986,13930,-3930,5507,4133,5917
2017-03-09 18:13:07.919781,-3385,3487,-6766,15841,5007,10406,3986,13930,-3930,5507,4133,5917
2017-03-09 18:13:07.925126,-3385,3487,-6766,15841,5007,10406,3986,13930,-3930,5507,4133,5917
2017-03-09 18:13:07.944059,8039,3487,-7636,15841,6171,10406,-789,13930,4457,5507,-195,5917
2017-03-09 18:13:07.958029,-908,3487,4637,15841,3447,10406,-5804,13930,1670,5507,2646,5917
2017-03-09 18:13:07.965471,3849,3487,-6015,15841,3310,10406,-5183,13930,-6591,5507,1555,5917
2017-03-09 18:13:07.973839,3849,3487,-6015,15841,3310,10406,-5183,13930,-6591,5507,1555,5917
2017-03-09 18:13:07.994756,3849,3487,-6015,15841,3310,10406,-5183,13930,-6591,5507,1555,5917
2017-03-09 18:13:08.015878,-7110,3487,-5956,15841,-5614,10406,-5812,13930,-5624,5507,-1282,5917
2017-03-09 18:13:08.016816,-7110,3487,-5956,15841,-5614,10406,-5812,13930,-5624,5507,-1282,5917
2017-03-09 18:13:08.023767,-7110,3487,-5956,15841,-5614,10406,-5812,13930,-5624,5507,-1282,5917
2017-03-09 18:13:08.028535,-7110,3487,-5956,15841,-5614,10406,-5812,13930,-5624,5507,-1282,5917
2017-03-09 18:13:08.035091,-3466,3487,7657,8266,5298,10406,6155,13930,1170,5507,6526,5917
2017-03-09 18:13:08.046885,-3466,3487,7657,8266,5298,10406,6155,13930,1170,5507,6526,5917
2017-03-09 18:13:08.054663,-3466,3487,7657,8266,5298,10406,6155,13930,1170,5507,6526,5917
2017-03-09 18:13:08.071777,-3466,3487,7657,8266,5298,10406,6155,13930,1170,5507,6526,5917
2017-03-09 18:13:08.083233,-3466,3487,7657,8266,5298,10406,6155,13930,1170,5507,6526,5917
2017-03-09 18:13:08.097950,-3466,3487,7657,8266,5298,10406,6155,13930,1170,5507,6526,5917
2017-03-09 18:13:08.102405,-3466,3487,7657,8266,5298,10406,6155,13930,1170,5507,6526,5917
2017-03-09 18:13:08.138622,-3466,3487,7657,8266,5298,10406,6155,13930,1170,5507,6526,5917
2017-03-09 18:13:08.143376,-3466,3487,7657,8266,5298,10406,6155,13930,1170,5507,6526,5917
2017-03-09 18:13:08.158047,-3466,3487,7657,8266,5298,10406,6155,13930,1170,5507,6526,5917
2017-03-09 18:13:08.169690,3513,3487,7100,8266,3802,10406,-1433,13930,6296,5507,-6373,5917
2017-03-09 18:13:08.186529,3513,3487,7100,8266,3802,10406,-1433,13930,6296,5507,-6373,5917
2017-03-09 18:13:08.194791,2900,3487,-5017,8266,7898,10406,-5744,13930,8136,5507,6088,5917
2017-03-09 18:13:08.201099,2900,3487,-5017,8266,7898,10406,-5744,13930,8136,5507,6088,5917
2017-03-09 18:13:08.207053,2900,3487,-5017,8266,7898,10406,-5744,13930,8136,5507,6088,5917
2017-03-09 18:13:08.221267,2900,3487,-5017,8266,7898,10406,-5744,13930,8136,5507,6088,5917
2017-03-09 18:13:08.234963,-6236,3487,-7678,8266,2253,10406,-7799,13930,6792,5507,3025,5917
2017-03-09 18:13:08.246372,-3204,3487,-8173,8266,-5119,10406,-3335,13930,-6260,5507,6985,5917
2017-03-09 18:13:08.269748,-3204,3487,-8173,8266,-5119,10406,-3335,13930,-6260,5507,6985,5917
2017-03-09 18:13:08.278425,-3204,3487,-8173,8266,-5119,10406,-3335,13930,-6260,5507,6985,5917
2017-03-09 18:13:08.288168,-7542,3487,4045,8266,-7742,10406,6841,13930,2583,5507,6184,5917
2017-03-09 18:13:08.294691,-7542,3487,4045,8266,-7742,10406,6841,13930,2583,5507,6184,5917
2017-03-09 18:13:08.307230,-7542,3487,4045,8266,-7742,10406,6841,13930,2583,5507,6184,5917
2017-03-09 18:13:08.329238,-7542,3487,4045,8266,-7742,10406,6841,13930,2583,5507,6184,5917
2017-03-09 18:13:08.350834,7017,3487,-5444,8266,-6236,10406,-3935,13930,4731,5507,-2703,5917
2017-03-09 18:13:08.357017,7017,3487,-5444,8266,-6236,10406,-3935,13930,4731,5507,-2703,5917
2017-03-09 18:13:08.371112,7017,3487,-5444,8266,-6236,10406,-3935,13930,4731,5507,-2703,5917
2017-03-09 18:13:08.377734,-2686,3487,7030,8266,1034,10406,-3753,13930,-6522,5507,5266,5917
2017-03-09 18:13:08.385145,-2686,3487,7030,8266,1034,10406,-3753,13930,-6522,5507,5266,5917
2017-03-09 18:13:08.394073,-2686,3487,7030,8266,1034,10406,-3753,13930,-6522,5507,5266,5917
2017-03-09 18:13:08.400585,-2686,3487,7030,8266,1034,10406,-3753,13930,-6522,5507,5266,5917
2017-03-09 18:13:08.409852,-2686,3487,7030,8266,1034,10406,-3753,13930,-6522,5507,5266,5917
2017-03-09 18:13:08.422040,-2686,3487,7030,8266,1034,10406,-3753,13930,-6522,5507,5266,5917
2017-03-09 18:13:08.437815,-2686,3487,7030,8266,1034,10406,-3753,13930,-6522,5507,5266,5917
2017-03-09 18:13:08.446659,-2686,3487,7030,8266,1034,10406,-3753,13930,-6522,5507,5266,5917
2017-03-09 18:13:08.464981,6404,3487,3510,8266,3677,10406,7241,13930,5031,5507,-5204,5917
2017-03-09 18:13:08.465155,6404,3487,3510,8266,3677,10406,7241,13930,5031,5507,-5204,5917
2017-03-09 18:13:08.485753,6404,3487,3510,8266,3677,10406,7241,13930,5031,5507,-5204,5917
2017-03-09 18:13:08.514245,1277,3487,6891,8266,7854,10406,-7596,13930,5106,5507,5207,5917
2017-03-09 18:13:08.514842,1277,3487,6891,8266,7854,10406,-7596,13930,5106,5507,5207,5917
2017-03-09 18:13:08.523763,1277,3487,6891,8266,7854,10406,-7596,13930,5106,5507,5207,5917
2017-03-09 18:13:08.527637,1277,3487,6891,8266,7854,10406,-7596,13930,5106,5507,5207,5917
2017-03-09 18:13:08.535648,134,3487,4423,8266,277,10406,3598,13930,7611,5507,3115,5917
2017-03-09 18:13:08.540670,134,3487,4423,8266,277,10406,3598,13930,7611,5507,3115,5917
2017-03-09 18:13:08.553195,134,3487,4423,8266,277,10406,3598,13930,7611,5507,3115,5917
2017-03-09 18:13:08.581985,134,3487,4423,8266,277,10406,3598,13930,7611,5507,3115,5917
2017-03-09 18:13:08.582225,134,3487,4423,8266,277,10406,3598,13930,7611,5507,3115,5917
2017-03-09 18:13:08.591055,134,3487,4423,8266,277,10406,3598,13930,7611,5507,3115,5917
2017-03-09 18:13:08.601514,134,3487,4423,8266,277,10406,3598,13930,7611,5507,3115,5917
2017-03-09 18:13:08.609374,134,3487,4423,8266,277,10406,3598,13930,7611,5507,3115,5917
2017-03-09 18:13:08.609560,-2959,3487,-2782,8266,3847,10406,6429,13930,6422,5507,4259,5917
2017-03-09 18:13:08.614096,-2959,3487,-2782,8266,3847,10406,6429,13930,6422,5507,4259,5917
2017-03-09 18:13:08.629752,-2959,3487,-2782,8266,3847,10406,6429,13930,6422,5507,4259,5917
2017-03-09 18:13:08.630982,-2959,3487,-2782,8266,3847,10406,6429,13930,6422,5507,4259,5917
2017-03-09 18:13:08.645812,2930,3487,-7996,8266,-4426,10406,-4704,13930,1867,5507,-7370,5917
2017-03-09 18:13:08.650305,2930,3487,-7996,8266,-4426,10406,-4704,13930,1867,5507,-7370,5917
2017-03-09 18:13:08.667214,2930,3487,-7996,8266,-4426,10406,-4704,13930,1867,5507,-7370,5917
2017-03-09 18:13:08.681825,2930,3487,-7996,8266,-4426,10406,-4704,13930,1867,5507,-7370,5917
2017-03-09 18:13:08.706433,2930,3487,-7996,8266,-4426,10406,-4704,13930,1867,5507,-7370,5917
2017-03-09 18:13:08.713736,2930,3487,-7996,8266,-4426,10406,-4704,13930,1867,5507,-7370,5917
2017-03-09 18:13:08.725973,2930,3487,-7996,8266,-4426,10406,-4704,13930,1867,5507,-7370,5917
2017-03-09 18:13:08.730184,-2342,3487,6287,9802,1880,10406,5404,13930,-1332,5507,6902,5917
2017-03-09 18:13:08.735654,-2342,3487,6287,9802,1880,10406,5404,13930,-1332,5507,6902,5917
2017-03-09 18:13:08.757546,-2342,3487,6287,9802,1880,10406,5404,13930,-1332,5507,6902,5917
2017-03-09 18:13:08.778489,-2342,3487,6287,9802,1880,10406,5404,13930,-1332,5507,6902,5917
2017-03-09 18:13:08.779282,-2342,3487,6287,9802,1880,10406,5404,13930,-1332,5507,6902,5917
2017-03-09 18:13:08.791824,-2507,3487,-909,9802,-2538,10406,3410,13930,1675,5507,-4309,5917
2017-03-09 18:13:08.802422,-2507,3487,-909,9802,-2538,10406,3410,13930,1675,5507,-4309,5917
2017-03-09 18:13:08.855066,-2507,3487,-909,9802,-2538,10406,3410,13930,1675,5507,-4309,5917
2017-03-09 18:13:08.855923,-4396,3487,7714,9802,-3744,10406,-940,13930,7122,5507,-215,5917
2017-03-09 18:13:08.868117,-4396,3487,7714,9802,-3744,10406,-940,13930,7122,5507,-215,5917
2017-03-09 18:13:08.871942,-5359,3487,-1886,9802,-3428,10406,6096,13930,-5960,5507,5893,5917
2017-03-09 18:13:08.882143,3135,3487,4423,9802,2092,10406,2183,13930,-2790,5507,3932,5917
2017-03-09 18:13:08.886220,3135,3487,4423,9802,2092,10406,2183,13930,-2790,5507,3932,5917
2017-03-09 18:13:08.897736,3135,3487,4423,9802,2092,10406,2183,13930,-2790,5507,3932,5917
2017-03-09 18:13:08.910793,3135,3487,4423,9802,2092,10406,2183,13930,-2790,5507,3932,5917
2017-03-09 18:13:08.931771,3135,3487,4423,9802,2092,10406,2183,13930,-2790,5507,3932,5917
2017-03-09 18:13:08.941798,1291,3487,2777,9802,-4620,10406,904,13930,-2179,5507,-3074,5917
2017-03-09 18:13:08.953994,4990,3487,2373,9802,-4282,10406,2807,13930,481,5507,3784,5917
2017-03-09 18:13:08.967036,4990,3487,2373,9802,-4282,10406,2807,13930,481,5507,3784,5917
2017-03-09 18:13:08.977916,4990,3487,2373,9802,-4282,10406,2807,13930,481,5507,3784,5917
2017-03-09 18:13:08.989276,4990,3487,2373,9802,-4282,10406,2807,13930,481,5507,3784,5917
2017-03-09 18:13:08.998661,776,3487,-5874,9802,-6652,10406,6289,13930,466,5507,-5973,5917
2017-03-09 18:13:09.009675,776,3487,-5874,9802,-6652,10406,6289,13930,466,5507,-5973,5917
2017-03-09 18:13:09.009848,776,3487,-5874,9802,-6652,10406,6289,13930,466,5507,-5973,5917
2017-03-09 18:13:09.024952,776,3487,-5874,9802,-6652,10406,6289,13930,466,5507,-5973,5917
2017-03-09 18:13:09.030740,-6532,3487,-7809,9802,5547,10406,-6968,13930,-4226,5507,1738,5917
2017-03-09 18:13:09.041557,-6532,3487,-7809,9802,5547,10406,-6968,13930,-4226,5507,1738,5917
2017-03-09 18:13:09.061937,-6532,3487,-7809,9802,5547,10406,-6968,13930,-4226,5507,1738,5917
2017-03-09 18:13:09.077338,-6532,3487,-7809,9802,5547,10406,-6968,13930,-4226,5507,1738,5917
2017-03-09 18:13:09.082790,-6532,3487,-7809,9802,5547,10406,-6968,13930,-4226,5507,1738,5917
2017-03-09 18:13:09.096021,-6532,3487,-7809,9802,5547,10406,-6968,13930,-4226,5507,1738,5917
2017-03-09 18:13:09.129653,-6532,3487,-7809,9802,5547,10406,-6968,13930,-4226,5507,1738,5917
2017-03-09 18:13:09.133484,938,3487,1178,9802,8112,10406,-1660,13930,4352,5507,4852,5917
2017-03-09 18:13:09.143717,938,3487,1178,9802,8112,10406,-1660,13930,4352,5507,4852,5917
2017-03-09 18:13:09.154211,938,3487,1178,9802,8112,10406,-1660,13930,4352,5507,4852,5917
2017-03-09 18:13:09.166454,938,3487,1178,9802,8112,10406,-1660,13930,4352,5507,4852,5917
2017-03-09 18:13:09.174838,1491,3487,2262,9802,-7342,11904,-464,13930,4947,5507,1438,5917
2017-03-09 18:13:09.189358,1491,3487,2262,9802,-7342,11904,-464,13930,4947,5507,1438,5917
2017-03-09 18:13:09.198543,1491,3487,2262,9802,-7342,11904,-464,13930,4947,5507,1438,5917
2017-03-09 18:13:09.210798,-161,3487,-3395,9802,7819,11904,-5660,13930,6479,5507,-8114,5917
2017-03-09 18:13:09.210995,-161,3487,-3395,9802,7819,11904,-5660,13930,6479,5507,-8114,5917
2017-03-09 18:13:09.230329,-1615,3487,-5513,9802,3696,11904,704,13930,-2589,5507,2434,5917
2017-03-09 18:13:09.241586,-1615,3487,-5513,9802,3696,11904,704,13930,-2589,5507,2434,5917
2017-03-09 18:13:09.256083,-1615,3487,-5513,9802,3696,11904,704,13930,-2589,5507,2434,5917
2017-03-09 18:13:09.285298,-1615,3487,-5513,9802,3696,11904,704,13930,-2589,5507,2434,5917
2017-03-09 18:13:09.294157,-1615,3487,-5513,9802,3696,11904,704,13930,-2589,5507,2434,5917
2017-03-09 18:13:09.300388,7984,3487,-447,9802,-4148,11904,6308,13930,-6060,5507,4430,1216
2017-03-09 18:13:09.310965,7984,3487,-447,9802,-4148,11904,6308,13930,-6060,5507,4430,1216
2017-03-09 18:13:09.315347,7984,3487,-447,9802,-4148,11904,6308,13930,-6060,5507,4430,1216
2017-03-09 18:13:09.322352,-3272,3487,6675,9802,-3866,11904,-1403,13930,-2737,5507,5785,1216
2017-03-09 18:13:09.328232,-3272,3487,6675,9802,-3866,11904,-1403,13930,-2737,5507,5785,1216
2017-03-09 18:13:09.336101,6485,3487,-5079,9802,-2204,11904,-3212,13930,8007,5507,2289,1216
2017-03-09 18:13:09.341509,6485,3487,-5079,9802,-5822,11904,1296,13930,8007,5507,2289,1216
2017-03-09 18:13:09.354358,-5208,3487,-4476,9802,6998,11904,4467,13930,1042,5507,1681,1216
2017-03-09 18:13:09.369678,-5208,3487,-4476,9802,6998,11904,4467,13930,1042,5507,1681,1216
2017-03-09 18:13:09.369865,-5208,3487,-4476,9802,6998,11904,4467,13930,1042,5507,1681,1216
2017-03-09 18:13:09.381860,-1093,3487,6440,9802,-837,11904,5430,13930,7984,5507,-7558,1216
2017-03-09 18:13:09.393958,-1093,3487,6440,9802,-837,11904,5430,13930,7984,5507,-7558,1216
2017-03-09 18:13:09.410514,-4578,3487,5799,9802,7317,11904,-87,13930,5561,5507,-1250,1216
2017-03-09 18:13:09.416473,-2654,2895,-6595,9802,-6628,11904,-3711,13930,1339,5507,1631,1216
2017-03-09 18:13:09.433676,-2654,2895,-6595,9802,-6628,11904,-3711,13930,1339,5507,1631,1216
2017-03-09 18:13:09.454197,-2654,2895,-6595,9802,-6628,11904,-3711,13930,1339,5507,1631,1216
2017-03-09 18:13:09.466751,-2654,2895,-6595,9802,-6628,11904,-3711,13930,1339,5507,1631,1216
2017-03-09 18:13:09.475732,-2654,2895,-6595,9802,-6628,11904,-3711,13930,1339,5507,1631,1216
2017-03-09 18:13:09.480713,-2654,2895,-6595,9802,-6628,11904,-3711,13930,1339,5507,1631,1216
2017-03-09 18:13:09.495767,-2654,2895,-6595,9802,-6628,11904,-3711,13930,1339,5507,1631,1216
2017-03-09 18:13:09.503816,-2654,2895,-6595,9802,-6628,11904,-3711,13930,1339,5507,1631,1216
2017-03-09 18:13:09.530808,-4899,2895,4107,9802,-2657,11904,100,12478,-4831,5507,2673,1216
2017-03-09 18:13:09.531044,-4899,2895,4107,9802,-2657,11904,100,12478,-4831,5507,2673,1216
2017-03-09 18:13:09.544067,-4899,2895,4107,9802,-2657,11904,100,12478,-4831,5507,2673,1216
2017-03-09 18:13:09.553917,-4899,2895,4107,9802,-2657,11904,100,12478,-4831,5507,2673,1216
2017-03-09 18:13:09.567786,-4899,2895,4107,9802,-2657,11904,100,12478,-4831,5507,2673,1216
2017-03-09 18:13:09.575392,-4899,2895,4107,9802,-2657,11904,100,12478,-4831,5507,2673,1216
2017-03-09 18:13:09.587839,372,2895,2966,9802,-7061,11904,6911,12478,-7161,5507,-1582,1216
2017-03-09 18:13:09.597024,-288,2895,-258,9802,-7013,11904,-2600,12478,-7503,5507,799,1216
2017-03-09 18:13:09.597799,-288,2895,-258,9802,-7013,11904,-2600,12478,-7503,5507,799,1216
2017-03-09 18:13:09.613935,1753,2895,-5495,9802,2353,11904,6042,12478,-5498,5507,3401,1216
2017-03-09 18:13:09.646934,1753,2895,-5495,9802,2353,11904,6042,12478,-5498,5507,3401,1216
2017-03-09 18:13:09.647539,1753,2895,-5495,9802,2353,11904,6042,12478,-5498,5507,3401,1216
2017-03-09 18:13:09.656495,1753,2895,-5495,9802,2353,11904,6042,12478,-5498,5507,3401,1216
2017-03-09 18:13:09.663352,2148,2895,3915,9802,-380,11904,7568,12478,-6176,5507,5599,1216
2017-03-09 18:13:09.673676,2148,2895,3915,9802,-380,11904,7568,12478,-6176,5507,5599,1216
2017-03-09 18:13:09.682230,2148,2895,3915,9802,-380,11904,7568,12478,-6176,5507,5599,1216
2017-03-09 18:13:09.690796,2148,2895,3915,9802,-380,11904,7568,12478,-6176,5507,5599,1216
2017-03-09 18:13:09.702657,2148,2895,3915,9802,-380,11904,7568,12478,-6176,5507,5599,1216
2017-03-09 18:13:09.709558,2148,2895,3915,9802,-380,11904,7568,12478,-6176,5507,5599,1216
2017-03-09 18:13:09.714350,-6255,2895,6253,9802,-2128,11904,2639,12478,-5059,5507,4891,1216
2017-03-09 18:13:09.720984,-2268,2895,-7828,9802,1643,11904,-6071,12478,4329,5507,6102,1216
2017-03-09 18:13:09.725803,-2268,2895,-7828,9802,1643,11904,-6071,12478,4329,5507,6102,1216
2017-03-09 18:13:09.735516,-2268,2895,-7828,9802,1643,11904,-6071,12478,4329,5507,6102,1216
2017-03-09 18:13:09.741668,-2268,2895,-7828,9802,1643,11904,-6071,12478,4329,5507,6102,1216
2017-03-09 18:13:09.757794,-2268,2895,-7828,9802,1643,11904,-6071,12478,4329,5507,6102,1216
2017-03-09 18:13:09.776460,-4525,2895,4961,9802,5395,11904,5506,12478,-1882,5507,8114,1216
2017-03-09 18:13:09.781553,-4525,2895,4961,9802,5395,11904,5506,12478,-1882,5507,8114,1216
2017-03-09 18:13:09.802452,-1271,2895,3569,9802,-5687,11904,-164,12478,4405,5507,6875,3566
2017-03-09 18:13:09.803725,-1271,2895,3569,9802,-5687,11904,-164,12478,4405,5507,6875,3566
2017-03-09 18:13:09.811540,-1271,2895,3569,9802,-5687,11904,-164,12478,4405,5507,6875,3566
2017-03-09 18:13:09.822709,-1271,2895,3569,9802,-5687,11904,-164,12478,4405,5507,6875,3566
2017-03-09 18:13:09.835965,-1271,2895,3569,9802,-5687,11904,-164,12478,4405,5507,6875,3566
2017-03-09 18:13:09.841782,-1271,2895,3569,9802,-5687,11904,-164,12478,4405,5507,6875,3566
2017-03-09 18:13:09.848018,-1271,2895,3569,9802,-5687,11904,-164,12478,4405,5507,6875,3566
2017-03-09 18:13:09.857833,-1271,2895,3569,9802,-5687,11904,-164,12478,4405,5507,6875,3566
2017-03-09 18:13:09.865819,-5245,2895,-4941,9802,1668,11904,-1836,12478,-5677,5507,2871,3566
2017-03-09 18:13:09.879222,-5245,2895,-4941,9802,1668,11904,-1836,12478,-5677,5507,2871,3566
2017-03-09 18:13:09.908979,-3274,2895,-4888,9802,84,11904,-6937,12478,471,5507,-2951,3566
2017-03-09 18:13:09.909632,-3274,2895,-4888,9802,84,11904,-6937,12478,471,5507,-2951,3566
2017-03-09 18:13:09.924998,-3274,2895,-4888,9802,84,11904,-6937,12478,471,5507,-2951,3566
2017-03-09 18:13:09.930453,-3274,2895,-4888,9802,84,11904,-6937,12478,471,5507,-2951,3566
2017-03-09 18:13:09.936633,-3274,2895,-4888,9802,84,11904,-6937,12478,471,5507,-2951,3566
2017-03-09 18:13:09.946200,-3274,2895,-4888,9802,84,11904,-6937,12478,471,5507,-2951,3566
2017-03-09 18:13:09.957437,-3274,2895,-4888,9802,84,11904,-6937,12478,471,5507,-2951,3566
2017-03-09 18:13:09.958135,-3274,2895,-4888,9802,84,11904,-6937,12478,471,5507,-2951,3566
2017-03-09 18:13:09.973886,-2664,2895,-1395,9802,-364,11904,-1512,12478,2277,5507,946,3566
2017-03-09 18:13:09.995196,-5378,2895,2399,9802,-3276,11904,-5794,12478,2135,5507,3312,3566
2017-03-09 18:13:10.001574,-5378,2895,2399,9802,-3276,11904,-5794,12478,2135,5507,3312,3566
2017-03-09 18:13:10.013931,-5378,2895,2399,9802,-3276,11904,-5794,12478,2135,5507,3312,3566
2017-03-09 18:13:10.017931,-5378,2895,2399,9802,-3276,11904,-5794,12478,2135,5507,3312,3566
2017-03-09 18:13:10.024457,7896,2895,-930,9802,4534,11904,7877,12478,-3520,5507,-870,3566
2017-03-09 18:13:10.032252,708,2895,2242,9802,-3932,11904,5494,12478,6183,5507,-3464,3566
2017-03-09 18:13:10.039395,708,2895,2242,9802,-3932,11904,5494,12478,6183,5507,-3464,3566
2017-03-09 18:13:10.054411,708,2895,2242,9802,-3932,11904,5494,12478,6183,5507,-3464,3566
2017-03-09 18:13:10.089296,-2754,2895,2065,9802,-1579,11904,-1690,12478,-167,5507,7054,3566
2017-03-09 18:13:10.089388,-2754,2895,2065,9802,-1579,11904,-1690,12478,-167,5507,7054,3566
2017-03-09 18:13:10.089430,-2754,2895,2065,9802,-1579,11904,-1690,12478,-167,5507,7054,3566
2017-03-09 18:13:10.089506,-2754,2895,2065,9802,-1579,11904,-1690,12478,-167,5507,7054,3566
2017-03-09 18:13:10.102720,3640,2895,1644,9802,-2302,11904,-1144,12478,2218,5507,1681,3566
2017-03-09 18:13:10.102894,3526,2895,-2533,9802,6704,11904,7086,12478,2993,5507,2646,3566
2017-03-09 18:13:10.139976,-3815,2895,-5131,9802,-7870,11904,6026,12478,-5875,5507,-294,3566
2017-03-09 18:13:10.140411,-3815,2895,-5131,9802,-7870,11904,6026,12478,-5875,5507,-294,3566
2017-03-09 18:13:10.150516,-3815,2895,-5131,9802,-7870,11904,6026,12478,-5875,5507,-294,3566
2017-03-09 18:13:10.158819,-3815,2895,-5131,9802,-7870,11904,6026,12478,-5875,5507,-294,3566
2017-03-09 18:13:10.170970,-3815,2895,-5131,9802,-7870,11904,6026,12478,-5875,5507,-294,3566
2017-03-09 18:13:10.176316,8081,2895,-2379,9802,1651,11904,4640,12478,2051,5507,-6292,10127
2017-03-09 18:13:10.180623,8081,2895,-2379,9802,1651,11904,4640,12478,2051,5507,-6292,10127
2017-03-09 18:13:10.195382,8081,2895,-2379,9802,1651,11904,4640,12478,2051,5507,-6292,10127
2017-03-09 18:13:10.195585,8081,2895,-2379,9802,1651,11904,4640,12478,2051,5507,-6292,10127
2017-03-09 18:13:10.206525,8081,2895,-2379,9802,1651,11904,4640,12478,2051,5507,-6292,10127
2017-03-09 18:13:10.211284,7352,2895,3599,9802,3395,11904,-4248,12478,-6261,5507,-5339,10127
2017-03-09 18:13:10.221562,7352,2895,3599,9802,3395,11904,-4248,12478,-6261,5507,-5339,10127
2017-03-09 18:13:10.234633,7352,2895,3599,9802,3395,11904,-4248,12478,-6261,5507,-5339,10127
2017-03-09 18:13:10.249367,7352,2895,3599,9802,3395,11904,-4248,12478,-6261,5507,-5339,10127
2017-03-09 18:13:10.265708,1311,2895,2748,9802,3489,11904,3703,12478,-7720,5507,-5201,10127
2017-03-09 18:13:10.275258,5076,2895,7,9802,6387,11904,5260,12478,428,5507,-1857,10127
2017-03-09 18:13:10.275978,5076,2895,7,9802,6387,11904,5260,12478,428,5507,-1857,10127
2017-03-09 18:13:10.285997,5076,2895,7,9802,6387,11904,5260,12478,428,5507,-1857,10127
2017-03-09 18:13:10.289771,5824,2895,-4221,9802,-3727,11904,-6302,12478,7871,5507,-1429,10127
2017-03-09 18:13:10.306785,-1929,2895,-350,9802,7035,11904,395,12478,-3856,5507,933,10127
2017-03-09 18:13:10.340388,-1929,2895,-350,9802,7035,11904,395,12478,-3856,5507,933,10127
2017-03-09 18:13:10.340520,-1929,2895,-350,9802,7035,11904,395,12478,-3856,5507,933,10127
2017-03-09 18:13:10.340655,-1929,2895,-350,9802,7035,11904,395,12478,-3856,5507,933,10127
2017-03-09 18:13:10.345273,-1727,2895,-1319,989,-3484,11904,6871,12478,-3132,5507,25,10127
2017-03-09 18:13:10.375728,-1727,2895,-1319,989,-3484,11904,6871,12478,-3132,5507,25,10127
2017-03-09 18:13:10.379572,-1727,2895,-1319,989,-3484,11904,6871,12478,-3132,5507,25,10127
2017-03-09 18:13:10.380230,-1727,2895,-1319,989,-3484,11904,6871,12478,-3132,5507,25,10127
2017-03-09 18:13:10.385526,-1727,2895,-1319,989,-3484,11904,6871,12478,-3132,5507,25,10127
2017-03-09 18:13:10.395827,-1727,2895,-1319,989,-3484,11904,6871,12478,-3132,5507,25,10127
2017-03-09 18:13:10.410380,-1727,2895,-1319,989,-3484,11904,6871,12478,-3132,5507,25,10127
2017-03-09 18:13:10.411803,-1727,2895,-1319,989,-3484,11904,6871,12478,-3132,5507,25,10127
2017-03-09 18:13:10.429141,-1727,2895,-1319,989,-3484,11904,6871,12478,-3132,5507,25,10127
2017-03-09 18:13:10.443417,-1727,2895,-1319,989,-3484,11904,6871,12478,-3132,5507,25,10127
2017-03-09 18:13:10.459019,-1727,2895,-1319,989,-3484,11904,6871,12478,-3132,5507,25,10127
2017-03-09 18:13:10.472181,-1727,2895,-1319,989,-3484,11904,6871,12478,-3132,5507,25,10127
2017-03-09 18:13:10.477296,1433,2895,-249,989,-4756,11904,6193,12478,-7694,5507,7641,10127
2017-03-09 18:13:10.492527,1433,2895,-249,989,-4756,11904,6193,12478,-7694,5507,7641,10127
2017-03-09 18:13:10.500946,1433,2895,-249,989,-4756,11904,6193,12478,-7694,5507,7641,10127
2017-03-09 18:13:10.513841,-4987,2895,1970,7551,4839,11904,1426,12478,5388,5507,-1,10127
2017-03-09 18:13:10.525072,-4987,2895,1970,7551,4839,11904,1426,12478,5388,5507,-1,10127
2017-03-09 18:13:10.525754,-4987,2895,1970,7551,4839,11904,1426,12478,5388,5507,-1,10127
2017-03-09 18:13:10.531898,-4987,2895,1970,7551,4839,11904,1426,12478,5388,5507,-1,10127
2017-03-09 18:13:10.559616,2431,2895,7295,7551,4918,11904,-772,8236,6776,5507,-1021,10127
2017-03-09 18:13:10.572098,2431,2895,7295,7551,4918,11904,-772,8236,6776,5507,-1021,10127
2017-03-09 18:13:10.582150,2431,2895,7295,7551,4918,11904,-772,8236,6776,5507,-1021,10127
2017-03-09 18:13:10.601875,5698,2895,-1379,7551,-3361,11904,2914,8236,-569,5507,1885,10127
2017-03-09 18:13:10.611704,5698,2895,-1379,7551,-3361,11904,2914,8236,-569,5507,1885,10127
2017-03-09 18:13:10.621986,-4378,2895,-4716,7551,642,11904,5393,8236,-7084,5507,6296,10127
2017-03-09 18:13:10.637047,-4378,2895,-4716,7551,642,11904,5393,8236,-7084,5507,6296,10127
2017-03-09 18:13:10.638804,-4378,2895,-4716,7551,642,11904,5393,8236,-7084,5507,6296,10127
2017-03-09 18:13:10.660930,-4378,2895,-4716,7551,642,11904,5393,8236,-7084,5507,6296,10127
2017-03-09 18:13:10.677834,6930,2895,-4338,7551,7085,11904,4080,8236,-283,5507,-2091,10127
2017-03-09 18:13:10.699950,6930,2895,-4338,7551,7085,11904,4080,8236,-283,5507,-2091,10127
2017-03-09 18:13:10.708327,6930,2895,-4338,7551,7085,11904,4080,8236,-283,5507,-2091,10127
2017-03-09 18:13:10.715431,5665,2895,-2166,7551,-5875,11904,4060,8236,-542,5507,7845,10127
2017-03-09 18:13:10.720264,5665,2895,-2166,7551,-5875,11904,4060,8236,-542,5507,7845,10127
2017-03-09 18:13:10.731302,5665,2895,-2166,7551,-5875,11904,4060,8236,-542,5507,7845,10127
2017-03-09 18:13:10.735851,5665,2895,-2166,7551,-5875,11904,4060,8236,-542,5507,7845,10127
2017-03-09 18:13:10.745009,1003,2895,7089,7551,3945,11904,3982,8236,-3752,5507,-3721,10127
2017-03-09 18:13:10.751051,-4880,2895,-4501,7551,8140,11904,-422,8236,2881,5507,-1975,10127
2017-03-09 18:13:10.757523,-4880,2895,-4501,7551,8140,11904,-422,8236,2881,5507,-1975,10127
2017-03-09 18:13:10.769824,-4880,2895,-4501,7551,8140,11904,-422,8236,2881,5507,-1975,10127
2017-03-09 18:13:10.775498,-4880,2895,-4501,7551,8140,11904,-422,8236,2881,5507,-1975,10127
2017-03-09 18:13:10.802704,6448,2895,3622,7551,-7215,11904,-3408,8236,-5506,5507,2868,10127
2017-03-09 18:13:10.813664,6448,2895,3622,7551,-7215,11904,-3408,8236,-5506,5507,2868,10127
2017-03-09 18:13:10.830775,6448,2895,3622,7551,-7215,11904,-3408,8236,-5506,5507,2868,10127
2017-03-09 18:13:10.837672,6448,2895,3622,7551,-7215,11904,-3408,8236,-5506,5507,2868,10127
2017-03-09 18:13:10.869746,-469,2895,524,7551,-1470,11904,4916,8236,-7706,5507,-6649,10127
2017-03-09 18:13:10.870001,-469,2895,524,7551,-1470,11904,4916,8236,-7706,5507,-6649,10127
2017-03-09 18:13:10.882278,-469,2895,524,7551,-1470,11904,4916,8236,-7706,5507,-6649,10127
2017-03-09 18:13:10.893808,-469,2895,524,7551,-1470,11904,4916,8236,-7706,5507,-6649,10127
2017-03-09 18:13:10.898539,-2295,2895,5903,7551,-3898,11904,3583,8236,3440,5507,-8014,10127
2017-03-09 18:13:10.913888,-2295,2895,5903,7551,-3898,11904,3583,8236,3440,5507,-8014,10127
2017-03-09 18:13:10.918904,-2295,2895,5903,7551,-3898,11904,3583,8236,3440,5507,-8014,10127
2017-03-09 18:13:10.930534,-2295,2895,5903,7551,-3898,11904,3583,8236,3440,5507,-8014,10127
2017-03-09 18:13:10.939754,-2295,2895,5903,7551,-3898,11904,3583,8236,3440,5507,-8014,10127
2017-03-09 18:13:10.947002,-2295,2895,5903,7551,-3898,11904,3583,8236,3440,5507,-8014,10127
2017-03-09 18:13:10.967162,-2295,2895,5903,7551,-3898,11904,3583,8236,3440,5507,-8014,10127
2017-03-09 18:13:10.967440,-2295,2895,5903,7551,-3898,11904,3583,8236,3440,5507,-8014,10127
2017-03-09 18:13:10.990201,-7316,2895,2277,7551,5278,11904,-873,8236,-2571,5507,-897,10127
2017-03-09 18:13:10.998988,-7316,2895,2277,7551,5278,11904,-873,8236,-2571,5507,-897,10127
2017-03-09 18:13:11.003763,-7316,2895,2277,7551,5278,11904,-873,8236,-2571,5507,-897,10127
2017-03-09 18:13:11.010924,-7316,2895,2277,7551,5278,11904,-873,8236,-2571,5507,-897,10127
2017-03-09 18:13:11.017334,-6499,2895,-7451,7551,7758,11904,-4731,8236,-1024,5507,-679,10127
2017-03-09 18:13:11.023591,-6499,2895,-7451,7551,7758,11904,-4731,8236,-1024,5507,-679,10127
2017-03-09 18:13:11.032984,-6499,2895,-7451,7551,7758,11904,-4731,8236,-1024,5507,-679,10127
2017-03-09 18:13:11.038387,-6499,2895,-7451,7551,7758,11904,-4731,8236,-1024,5507,-679,10127
2017-03-09 18:13:11.054743,-5316,2895,-7875,7551,-2949,11904,1019,8236,151,5507,1927,10127
2017-03-09 18:13:11.068930,1264,2895,727,7551,-4206,11904,-5737,8236,-4022,5507,-4218,10127
2017-03-09 18:13:11.077849,1264,2895,727,7551,-4206,11904,-5737,8236,-4022,5507,-4218,10127
2017-03-09 18:13:11.085949,7042,2895,7365,7551,-6395,11904,2830,8236,-6456,5507,-2685,10127
2017-03-09 18:13:11.098914,7042,2895,7365,7551,-6395,11904,2830,8236,-6456,5507,-2685,10127
2017-03-09 18:13:11.122478,7042,2895,7365,7551,-6395,11904,2830,8236,-6456,5507,-2685,10127
2017-03-09 18:13:11.135599,7042,2895,7365,7551,-6395,11904,2830,8236,-6456,5507,-2685,10127
2017-03-09 18:13:11.142530,7042,2895,7365,7551,-6395,11904,2830,8236,-6456,5507,-2685,10127
2017-03-09 18:13:11.155514,-5503,2895,5783,7551,-1517,11904,-1089,8236,4121,5507,-6989,10127
2017-03-09 18:13:11.169297,-5503,2895,5783,7551,-1517,11904,-1089,8236,4121,5507,-6989,10127
2017-03-09 18:13:11.198129,-5503,2895,5783,7551,-1517,11904,-1089,8236,4121,5507,-6989,10127
2017-03-09 18:13:11.222875,4697,2895,-6345,7551,-5589,11904,-7167,8236,-4146,5507,6952,10127
2017-03-09 18:13:11.223511,4697,2895,-6345,7551,-5589,11904,-7167,8236,-4146,5507,6952,10127
2017-03-09 18:13:11.235006,4697,2895,-6345,7551,-5589,11904,-7167,8236,-4146,5507,6952,10127
2017-03-09 18:13:11.241811,4697,2895,-6345,7551,-5589,11904,-7167,8236,-4146,5507,6952,10127
2017-03-09 18:13:11.251002,4697,2895,-6345,7551,-5589,11904,-7167,8236,-4146,5507,6952,10127
2017-03-09 18:13:11.259937,2383,2895,5920,7551,-6584,11904,-3895,8236,-1864,5507,-7194,10127
2017-03-09 18:13:11.267751,2383,2895,5920,7551,-6584,11904,-3895,8236,-1864,5507,-7194,10127
2017-03-09 18:13:11.294177,2383,2895,5920,7551,-6584,11904,-3895,8236,-1864,5507,-7194,10127
2017-03-09 18:13:11.303426,2383,2895,5920,7551,-6584,11904,-3895,8236,-1864,5507,-7194,10127
2017-03-09 18:13:11.314203,2383,2895,5920,7551,-6584,11904,-3895,8236,-1864,5507,-7194,10127
2017-03-09 18:13:11.318538,-2373,2895,-154,7551,-1094,11904,-7789,8236,-7846,5507,6502,10127
2017-03-09 18:13:11.333098,-2373,2895,-154,7551,-1094,11904,-7789,8236,-7846,5507,6502,10127
2017-03-09 18:13:11.345692,-2373,2895,-154,7551,-1094,11904,-7789,8236,-7846,5507,6502,10127
2017-03-09 18:13:11.353767,-2373,2895,-154,7551,-1094,11904,-7789,8236,-7846,5507,6502,10127
2017-03-09 18:13:11.361663,-5992,2895,-2099,7551,-5802,11904,649,8236,6192,5507,-2467,10127
2017-03-09 18:13:11.366628,-5992,2895,-2099,7551,-5802,11904,649,8236,6192,5507,-2467,10127
2017-03-09 18:13:11.373895,-5992,2895,-2099,7551,-5802,11904,649,8236,6192,5507,-2467,10127
2017-03-09 18:13:11.383048,-5992,2895,-2099,7551,-5802,11904,649,8236,6192,5507,-2467,10127
2017-03-09 18:13:11.396421,2312,2895,-3012,7551,-7068,11904,-8017,8236,6124,5507,2415,10127
2017-03-09 18:13:11.402390,2312,2895,-3012,7551,-7068,11904,-8017,8236,6124,5507,2415,10127
2017-03-09 18:13:11.419573,2312,2895,-3012,7551,-7068,11904,-8017,8236,6124,5507,2415,10127
2017-03-09 18:13:11.419839,2312,2895,-3012,7551,-7068,11904,-8017,8236,6124,5507,2415,10127
2017-03-09 18:13:11.447628,2312,2895,-3012,7551,-7068,11904,-8017,8236,6124,5507,2415,10127
2017-03-09 18:13:11.460685,-4525,2895,-3240,7551,5115,11904,1798,8236,7981,5507,4440,10127
2017-03-09 18:13:11.469199,-4525,2895,-3240,7551,5115,11904,1798,8236,7981,5507,4440,10127
2017-03-09 18:13:11.477525,-4525,2895,-3240,7551,5115,11904,1798,8236,7981,5507,4440,10127
2017-03-09 18:13:11.491534,-1366,2895,-3127,7551,-1771,11904,5524,8236,5724,5507,-5344,10127
2017-03-09 18:13:11.509856,-1366,2895,-3127,7551,-1771,11904,5524,8236,5724,5507,-5344,10127
2017-03-09 18:13:11.517908,-1366,2895,-3127,7551,-1771,11904,5524,8236,5724,5507,-5344,10127
2017-03-09 18:13:11.525857,3522,2895,-2346,7551,-2495,11904,-5342,8236,-4792,5507,-657,10127
2017-03-09 18:13:11.531335,3522,2895,-2346,7551,-2495,11904,-5342,8236,-4792,5507,-657,10127
2017-03-09 18:13:11.550431,3522,2895,-2346,7551,-2495,11904,-5342,8236,-4792,5507,-657,10127
2017-03-09 18:13:11.559352,-2626,2895,-7003,7551,4601,11904,7031,8236,-4073,5507,-1911,10127
2017-03-09 18:13:11.571118,-2626,2895,-7003,7551,4601,11904,7031,8236,-4073,5507,-1911,10127
2017-03-09 18:13:11.580937,6995,2895,-1982,7551,-6664,11904,-3888,8236,-1317,5507,4027,10127
2017-03-09 18:13:11.586676,6995,2895,-1982,7551,-6664,11904,-3888,8236,-1317,5507,4027,10127
2017-03-09 18:13:11.601661,6995,2895,-1982,7551,-6664,11904,-3888,8236,-1317,5507,4027,10127
2017-03-09 18:13:11.626451,788,2895,-2972,7551,-3176,11904,7152,8236,-1558,5507,-3586,10127
2017-03-09 18:13:11.626547,788,2895,-2972,7551,-3176,11904,7152,8236,-1558,5507,-3586,10127
2017-03-09 18:13:11.637734,788,2895,-2972,7551,-3176,11904,7152,8236,-1558,5507,-3586,10127
2017-03-09 18:13:11.649082,788,2895,-2972,7551,-3176,11904,7152,8236,-1558,5507,-3586,10127
2017-03-09 18:13:11.649817,788,2895,-2972,7551,-3176,11904,7152,8236,-1558,5507,-3586,10127
2017-03-09 18:13:11.655765,-158,2895,-1513,7551,-2586,3872,-3380,8236,-3846,5507,-4897,10127
2017-03-09 18:13:11.662121,-158,2895,-1513,7551,-2586,3872,-3380,8236,-3846,5507,-4897,10127
2017-03-09 18:13:11.670074,-158,2895,-1513,7551,-2586,3872,-3380,8236,-3846,5507,-4897,10127
2017-03-09 18:13:11.683046,-158,2895,-1513,7551,-2586,3872,-3380,8236,-3846,5507,-4897,10127
2017-03-09 18:13:11.693869,-158,2895,-1513,7551,-2586,3872,-3380,8236,-3846,5507,-4897,10127
2017-03-09 18:13:11.709363,-158,2895,-1513,7551,-2586,3872,-3380,8236,-3846,5507,-4897,10127
2017-03-09 18:13:11.720588,-158,2895,-1513,7551,-2586,3872,-3380,8236,-3846,5507,-4897,10127
2017-03-09 18:13:11.739199,-158,2895,-1513,7551,-2586,3872,-3380,8236,-3846,5507,-4897,10127
2017-03-09 18:13:11.751699,4339,2895,-5797,7551,815,3872,954,8236,-4186,5507,-7452,10127
2017-03-09 18:13:11.761923,4339,2895,-5797,7551,815,3872,954,8236,-4186,5507,-7452,10127
2017-03-09 18:13:11.778136,5866,2895,-415,4039,4872,3872,3086,8236,-463,5507,-4363,10127
2017-03-09 18:13:11.786055,5866,2895,-415,4039,4872,3872,3086,8236,-463,5507,-4363,10127
2017-03-09 18:13:11.793944,5866,2895,-415,4039,4872,3872,3086,8236,-463,5507,-4363,10127
2017-03-09 18:13:11.806258,5866,2895,-415,4039,4872,3872,3086,8236,-463,5507,-4363,10127
2017-03-09 18:13:11.806495,5866,2895,-415,4039,4872,3872,3086,8236,-463,5507,-4363,10127
2017-03-09 18:13:11.822107,5866,2895,-415,4039,4872,3872,3086,8236,-463,5507,-4363,10127
2017-03-09 18:13:11.836133,5866,2895,-415,4039,4872,3872,3086,8236,-463,5507,-4363,10127
2017-03-09 18:13:11.842982,5866,2895,-415,4039,4872,3872,3086,8236,-463,5507,-4363,10127
2017-03-09 18:13:11.868454,5866,2895,-415,4039,4872,3872,3086,8236,-463,5507,-4363,10127
2017-03-09 18:13:11.886288,5866,2895,-415,4039,4872,3872,3086,8236,-463,5507,-4363,10127
2017-03-09 18:13:11.891848,5866,2895,-415,4039,4872,3872,3086,8236,-463,5507,-4363,10127
2017-03-09 18:13:11.914179,5866,2895,-415,4039,4872,3872,3086,8236,-463,5507,-4363,10127
2017-03-09 18:13:11.926357,-4656,2895,4443,4039,-7213,3872,5152,8236,2800,5507,3006,10127
2017-03-09 18:13:11.934115,5657,2895,8112,4039,3193,3872,-124,8236,-511,5507,-5945,10127
2017-03-09 18:13:11.952193,5152,2895,5740,4039,466,3872,717,8236,4276,11921,1218,10127
2017-03-09 18:13:11.952375,5152,2895,5740,4039,466,3872,717,8236,4276,11921,1218,10127
2017-03-09 18:13:11.952561,5152,2895,5740,4039,466,3872,717,8236,4276,11921,1218,10127
2017-03-09 18:13:11.970558,5152,2895,5740,4039,466,3872,717,8236,4276,11921,1218,10127
2017-03-09 18:13:11.981918,5152,2895,5740,4039,466,3872,717,8236,4276,11921,1218,10127
2017-03-09 18:13:12.003276,5152,2895,5740,4039,466,3872,717,8236,4276,11921,1218,10127
2017-03-09 18:13:12.044493,-4255,2895,-4766,4039,461,3872,-1192,8236,-8149,11921,5806,10127
2017-03-09 18:13:12.064481,-4255,2895,-4766,4039,461,3872,-1192,8236,-8149,11921,5806,10127
2017-03-09 18:13:12.077198,-4255,2895,-4766,4039,461,3872,-1192,8236,-8149,11921,5806,10127
2017-03-09 18:13:12.077914,6325,2895,6181,4039,842,3872,6992,12438,-1450,11921,-5867,10127
2017-03-09 18:13:12.087005,6325,2895,6181,4039,842,3872,6992,12438,-1450,11921,-5867,10127
2017-03-09 18:13:12.093587,2705,2895,-3738,4039,-4827,3872,5981,12438,6150,11921,377,10127
2017-03-09 18:13:12.101591,2705,2895,-3738,4039,-4827,3872,5981,12438,6150,11921,377,10127
2017-03-09 18:13:12.106634,2705,2895,-3738,4039,-4827,3872,5981,12438,6150,11921,377,10127
2017-03-09 18:13:12.114173,2705,2895,-3738,4039,-4827,3872,5981,12438,6150,11921,377,10127
2017-03-09 18:13:12.123817,-7832,2895,-506,4039,-2299,3872,-3196,12438,-6640,11921,3197,10127
2017-03-09 18:13:12.141832,-7832,2895,-506,4039,-2299,3872,-3196,12438,-6640,11921,3197,10127
2017-03-09 18:13:12.163965,-7832,2895,-506,4039,-2299,3872,-3196,12438,-6640,11921,3197,10127
2017-03-09 18:13:12.164186,-7832,2895,-506,4039,-2299,3872,-3196,12438,-6640,11921,3197,10127
2017-03-09 18:13:12.182550,1389,2895,-7028,4039,2316,3872,-4517,12438,-221,11921,-8058,10127
2017-03-09 18:13:12.193642,1389,2895,-7028,4039,2316,3872,-4517,12438,-221,11921,-8058,10127
2017-03-09 18:13:12.214458,1389,2895,-7028,4039,2316,3872,-4517,12438,-221,11921,-8058,10127
2017-03-09 18:13:12.230734,5383,2895,-3261,4039,-6864,3872,-7779,12438,-1055,11921,7070,10127
2017-03-09 18:13:12.241645,5383,2895,-3261,4039,-6864,3872,-7779,12438,-1055,11921,7070,10127
2017-03-09 18:13:12.263534,-423,2895,3978,4039,-3494,3872,-2965,12438,2492,11921,-2891,10127
2017-03-09 18:13:12.270764,-423,2895,3978,4039,-3494,3872,-2965,12438,2492,11921,-2891,10127
2017-03-09 18:13:12.286999,-4839,2895,3291,4039,7769,3872,-4291,12438,-1020,11921,5015,10127
2017-03-09 18:13:12.287840,-4839,2895,3291,4039,7769,3872,-4291,12438,-1020,11921,5015,10127
2017-03-09 18:13:12.292564,7774,2895,1000,4039,-5874,3872,5387,12438,-6911,11921,515,10127
2017-03-09 18:13:12.317650,7774,2895,1000,4039,-5874,3872,5387,12438,-6911,11921,515,10127
2017-03-09 18:13:12.353947,7774,2895,1000,4039,-5874,3872,5387,12438,-6911,11921,515,10127
2017-03-09 18:13:12.354067,7774,2895,1000,4039,-5874,3872,5387,12438,-6911,11921,515,10127
2017-03-09 18:13:12.354174,-6489,2895,-1779,4039,2076,3872,1070,12438,-5582,11921,6949,10127
